Bruker Nano GmbH Berlin, Germany
Esprit 1.9

Date: 4/1/2021 4:54:09 PM
Real time: 15239
Life time: 13939
Pulse density: 128223


Detector type: XFlash 430
Window type: Custom type
Detector thickness: 0.45
Si dead layer:0.029

Calibration, lin.: 10
Calibration, abs.: -955.9
Mn FWHM: 137.05
Fano factor: 0.121
Channels: 4095

Energy Counts
-0.9559     0
-0.9459     0
-0.9359     0
-0.9259     0
-0.9159     0
-0.9059     0
-0.8959     0
-0.8859     0
-0.8759     0
-0.8659     0
-0.8559     0
-0.8459     0
-0.8359     0
-0.8259     0
-0.8159     0
-0.8059     0
-0.7959     0
-0.7859     0
-0.7759     0
-0.7659     0
-0.7559     0
-0.7459     0
-0.7359     0
-0.7259     0
-0.7159     0
-0.7059     0
-0.6959     0
-0.6859     0
-0.6759     0
-0.6659     0
-0.6559     0
-0.6459     0
-0.6359     0
-0.6259     0
-0.6159     0
-0.6059     0
-0.5959     0
-0.5859     0
-0.5759     0
-0.5659     0
-0.5559     0
-0.5459     0
-0.5359     0
-0.5259     0
-0.5159     0
-0.5059     0
-0.4959     0
-0.4859     0
-0.4759     0
-0.4659     0
-0.4559     0
-0.4459     0
-0.4359     0
-0.4259     0
-0.4159     0
-0.4059     0
-0.3959     0
-0.3859     0
-0.3759     0
-0.3659     0
-0.3559     0
-0.3459     0
-0.3359     0
-0.3259     0
-0.3159     0
-0.3059     0
-0.2959     0
-0.2859     0
-0.2759     0
-0.2659     0
-0.2559     0
-0.2459     0
-0.2359     0
-0.2259     0
-0.2159     0
-0.2059     0
-0.1959     0
-0.1859     0
-0.1759     0
-0.1659     0
-0.1559     1
-0.1459     0
-0.1359     1
-0.1259     0
-0.1159     2
-0.1059     9
-0.0959    39
-0.0859   174
-0.0759   506
-0.0659  1589
-0.0559  4111
-0.0459  8737
-0.0359 16641
-0.0259 26353
-0.0159 36470
-0.0059 42708
 0.0041 42933
 0.0141 36780
 0.0241 27383
 0.0341 17438
 0.0441  9401
 0.0541  4500
 0.0641  1634
 0.0741   605
 0.0841   232
 0.0941    49
 0.1041    14
 0.1141     4
 0.1241     8
 0.1341     8
 0.1441     8
 0.1541     7
 0.1641     3
 0.1741    19
 0.1841   148
 0.1941   288
 0.2041   261
 0.2141   257
 0.2241   274
 0.2341   260
 0.2441   257
 0.2541   261
 0.2641   236
 0.2741   250
 0.2841   258
 0.2941   246
 0.3041   242
 0.3141   253
 0.3241   238
 0.3341   229
 0.3441   238
 0.3541   241
 0.3641   225
 0.3741   222
 0.3841   222
 0.3941   230
 0.4041   241
 0.4141   215
 0.4241   202
 0.4341   221
 0.4441   202
 0.4541   195
 0.4641   200
 0.4741   204
 0.4841   219
 0.4941   228
 0.5041   212
 0.5141   201
 0.5241   212
 0.5341   207
 0.5441   195
 0.5541   205
 0.5641   222
 0.5741   221
 0.5841   209
 0.5941   212
 0.6041   204
 0.6141   203
 0.6241   195
 0.6341   186
 0.6441   189
 0.6541   200
 0.6641   203
 0.6741   200
 0.6841   209
 0.6941   217
 0.7041   200
 0.7141   195
 0.7241   190
 0.7341   191
 0.7441   203
 0.7541   195
 0.7641   183
 0.7741   185
 0.7841   167
 0.7941   170
 0.8041   170
 0.8141   175
 0.8241   169
 0.8341   181
 0.8441   176
 0.8541   181
 0.8641   185
 0.8741   194
 0.8841   173
 0.8941   161
 0.9041   173
 0.9141   158
 0.9241   180
 0.9341   197
 0.9441   179
 0.9541   176
 0.9641   183
 0.9741   164
 0.9841   177
 0.9941   170
 1.0041   191
 1.0141   167
 1.0241   163
 1.0341   154
 1.0441   155
 1.0541   172
 1.0641   170
 1.0741   174
 1.0841   166
 1.0941   149
 1.1041   156
 1.1141   158
 1.1241   150
 1.1341   146
 1.1441   174
 1.1541   162
 1.1641   154
 1.1741   158
 1.1841   164
 1.1941   157
 1.2041   150
 1.2141   146
 1.2241   166
 1.2341   161
 1.2441   152
 1.2541   166
 1.2641   154
 1.2741   140
 1.2841   144
 1.2941   135
 1.3041   140
 1.3141   146
 1.3241   166
 1.3341   165
 1.3441   159
 1.3541   135
 1.3641   154
 1.3741   145
 1.3841   126
 1.3941   120
 1.4041   110
 1.4141   123
 1.4241   154
 1.4341   135
 1.4441   144
 1.4541   153
 1.4641   144
 1.4741   154
 1.4841   157
 1.4941   170
 1.5041   146
 1.5141   148
 1.5241   152
 1.5341   137
 1.5441   136
 1.5541   126
 1.5641   138
 1.5741   141
 1.5841   146
 1.5941   138
 1.6041   148
 1.6141   130
 1.6241   143
 1.6341   170
 1.6441   180
 1.6541   165
 1.6641   191
 1.6741   239
 1.6841   286
 1.6941   366
 1.7041   460
 1.7141   499
 1.7241   537
 1.7341   564
 1.7441   555
 1.7541   553
 1.7641   493
 1.7741   410
 1.7841   365
 1.7941   311
 1.8041   256
 1.8141   216
 1.8241   196
 1.8341   188
 1.8441   176
 1.8541   167
 1.8641   162
 1.8741   145
 1.8841   155
 1.8941   162
 1.9041   156
 1.9141   157
 1.9241   142
 1.9341   156
 1.9441   161
 1.9541   147
 1.9641   149
 1.9741   160
 1.9841   152
 1.9941   170
 2.0041   155
 2.0141   187
 2.0241   190
 2.0341   173
 2.0441   165
 2.0541   144
 2.0641   154
 2.0741   125
 2.0841   119
 2.0941   133
 2.1041   137
 2.1141   141
 2.1241   127
 2.1341   128
 2.1441   147
 2.1541   141
 2.1641   130
 2.1741   119
 2.1841   130
 2.1941   123
 2.2041   133
 2.2141   129
 2.2241   137
 2.2341   131
 2.2441   122
 2.2541   117
 2.2641   117
 2.2741   112
 2.2841   131
 2.2941   103
 2.3041   106
 2.3141   126
 2.3241   126
 2.3341   116
 2.3441   118
 2.3541   104
 2.3641   112
 2.3741   125
 2.3841   113
 2.3941   107
 2.4041   112
 2.4141   123
 2.4241   108
 2.4341   121
 2.4441   140
 2.4541   117
 2.4641   122
 2.4741   127
 2.4841   132
 2.4941    87
 2.5041   120
 2.5141   111
 2.5241   107
 2.5341   105
 2.5441   111
 2.5541   115
 2.5641   108
 2.5741   106
 2.5841   100
 2.5941   123
 2.6041   107
 2.6141   102
 2.6241   100
 2.6341    98
 2.6441   122
 2.6541   105
 2.6641   117
 2.6741   103
 2.6841   115
 2.6941   112
 2.7041   103
 2.7141   107
 2.7241    98
 2.7341   115
 2.7441    93
 2.7541    88
 2.7641    99
 2.7741    91
 2.7841   112
 2.7941   103
 2.8041   107
 2.8141    98
 2.8241    95
 2.8341   114
 2.8441   107
 2.8541    93
 2.8641   117
 2.8741    95
 2.8841    86
 2.8941    95
 2.9041    99
 2.9141    77
 2.9241   104
 2.9341   108
 2.9441    97
 2.9541   102
 2.9641    87
 2.9741   108
 2.9841   112
 2.9941   107
 3.0041    93
 3.0141   108
 3.0241   103
 3.0341   110
 3.0441   105
 3.0541    97
 3.0641    80
 3.0741    83
 3.0841    87
 3.0941    86
 3.1041    91
 3.1141    94
 3.1241    78
 3.1341    83
 3.1441    85
 3.1541    93
 3.1641    83
 3.1741    95
 3.1841    95
 3.1941    93
 3.2041    89
 3.2141    76
 3.2241    97
 3.2341   117
 3.2441   117
 3.2541   124
 3.2641   142
 3.2741   147
 3.2841   134
 3.2941   172
 3.3041   160
 3.3141   150
 3.3241   155
 3.3341   155
 3.3441   162
 3.3541   148
 3.3641   114
 3.3741   124
 3.3841   123
 3.3941    99
 3.4041    86
 3.4141    80
 3.4241    96
 3.4341    87
 3.4441    76
 3.4541    71
 3.4641    91
 3.4741    86
 3.4841    78
 3.4941    96
 3.5041    75
 3.5141    80
 3.5241    95
 3.5341   115
 3.5441    95
 3.5541   135
 3.5641   158
 3.5741   174
 3.5841   230
 3.5941   260
 3.6041   349
 3.6141   442
 3.6241   579
 3.6341   653
 3.6441   798
 3.6541   993
 3.6641  1054
 3.6741  1149
 3.6841  1262
 3.6941  1149
 3.7041  1175
 3.7141  1050
 3.7241   939
 3.7341   807
 3.7441   683
 3.7541   514
 3.7641   424
 3.7741   307
 3.7841   255
 3.7941   190
 3.8041   146
 3.8141   119
 3.8241   102
 3.8341    91
 3.8441    73
 3.8541    85
 3.8641    72
 3.8741    74
 3.8841    87
 3.8941    69
 3.9041    89
 3.9141   105
 3.9241   128
 3.9341   129
 3.9441   154
 3.9541   166
 3.9641   190
 3.9741   204
 3.9841   216
 3.9941   248
 4.0041   239
 4.0141   258
 4.0241   228
 4.0341   249
 4.0441   218
 4.0541   203
 4.0641   180
 4.0741   160
 4.0841   147
 4.0941    95
 4.1041   103
 4.1141    90
 4.1241    81
 4.1341    73
 4.1441    57
 4.1541    70
 4.1641    65
 4.1741    53
 4.1841    65
 4.1941    64
 4.2041    67
 4.2141    52
 4.2241    56
 4.2341    79
 4.2441    65
 4.2541    60
 4.2641    62
 4.2741    61
 4.2841    64
 4.2941    53
 4.3041    51
 4.3141    74
 4.3241    51
 4.3341    69
 4.3441    68
 4.3541    76
 4.3641    74
 4.3741    86
 4.3841    99
 4.3941    89
 4.4041   134
 4.4141   146
 4.4241   178
 4.4341   227
 4.4441   273
 4.4541   313
 4.4641   342
 4.4741   382
 4.4841   450
 4.4941   413
 4.5041   454
 4.5141   474
 4.5241   446
 4.5341   388
 4.5441   376
 4.5541   312
 4.5641   275
 4.5741   228
 4.5841   167
 4.5941   140
 4.6041   134
 4.6141   114
 4.6241    97
 4.6341   100
 4.6441    97
 4.6541    87
 4.6641    92
 4.6741    76
 4.6841    71
 4.6941    86
 4.7041    78
 4.7141    59
 4.7241    70
 4.7341    81
 4.7441    84
 4.7541    85
 4.7641    78
 4.7741    69
 4.7841   102
 4.7941    85
 4.8041   100
 4.8141   103
 4.8241   117
 4.8341   124
 4.8441   114
 4.8541   105
 4.8641   132
 4.8741   149
 4.8841   139
 4.8941   163
 4.9041   173
 4.9141   159
 4.9241   169
 4.9341   180
 4.9441   170
 4.9541   168
 4.9641   137
 4.9741   133
 4.9841   130
 4.9941   127
 5.0041    95
 5.0141   101
 5.0241    96
 5.0341    97
 5.0441    98
 5.0541    77
 5.0641    69
 5.0741    70
 5.0841    82
 5.0941    87
 5.1041    64
 5.1141    69
 5.1241    71
 5.1341    79
 5.1441    72
 5.1541    80
 5.1641    89
 5.1741    97
 5.1841    81
 5.1941    92
 5.2041    83
 5.2141    78
 5.2241    85
 5.2341   112
 5.2441    90
 5.2541    80
 5.2641    83
 5.2741    95
 5.2841    99
 5.2941    87
 5.3041    92
 5.3141   100
 5.3241   106
 5.3341    93
 5.3441    87
 5.3541   121
 5.3641    91
 5.3741   115
 5.3841   128
 5.3941   118
 5.4041   123
 5.4141   118
 5.4241   133
 5.4341   124
 5.4441   120
 5.4541   124
 5.4641   123
 5.4741   109
 5.4841   102
 5.4941    81
 5.5041    89
 5.5141   100
 5.5241    91
 5.5341   110
 5.5441    74
 5.5541    90
 5.5641    92
 5.5741    86
 5.5841    85
 5.5941    94
 5.6041    87
 5.6141    88
 5.6241   102
 5.6341    94
 5.6441    84
 5.6541    88
 5.6641    81
 5.6741   102
 5.6841   105
 5.6941   105
 5.7041   104
 5.7141    99
 5.7241   126
 5.7341    88
 5.7441   114
 5.7541   108
 5.7641   151
 5.7741   171
 5.7841   169
 5.7941   209
 5.8041   221
 5.8141   298
 5.8241   343
 5.8341   393
 5.8441   413
 5.8541   481
 5.8641   539
 5.8741   549
 5.8841   652
 5.8941   582
 5.9041   548
 5.9141   528
 5.9241   516
 5.9341   460
 5.9441   470
 5.9541   383
 5.9641   344
 5.9741   259
 5.9841   247
 5.9941   230
 6.0041   207
 6.0141   146
 6.0241   167
 6.0341   158
 6.0441   143
 6.0541   126
 6.0641   130
 6.0741   141
 6.0841   144
 6.0941   158
 6.1041   148
 6.1141   137
 6.1241   163
 6.1341   142
 6.1441   177
 6.1541   187
 6.1641   209
 6.1741   244
 6.1841   278
 6.1941   340
 6.2041   397
 6.2141   586
 6.2241   744
 6.2341  1008
 6.2441  1452
 6.2541  1972
 6.2641  2721
 6.2741  3894
 6.2841  5177
 6.2941  6856
 6.3041  9049
 6.3141 11325
 6.3241 14183
 6.3341 16783
 6.3441 19574
 6.3541 22322
 6.3641 24832
 6.3741 26863
 6.3841 28434
 6.3941 29059
 6.4041 29006
 6.4141 27866
 6.4241 26065
 6.4341 24102
 6.4441 21548
 6.4541 18775
 6.4641 15661
 6.4741 12992
 6.4841 10050
 6.4941  8109
 6.5041  6101
 6.5141  4528
 6.5241  3351
 6.5341  2353
 6.5441  1616
 6.5541  1134
 6.5641   773
 6.5741   603
 6.5841   393
 6.5941   297
 6.6041   272
 6.6141   216
 6.6241   181
 6.6341   187
 6.6441   153
 6.6541   155
 6.6641   155
 6.6741   167
 6.6841   161
 6.6941   165
 6.7041   183
 6.7141   169
 6.7241   165
 6.7341   181
 6.7441   171
 6.7541   185
 6.7641   174
 6.7741   176
 6.7841   172
 6.7941   198
 6.8041   219
 6.8141   215
 6.8241   208
 6.8341   248
 6.8441   252
 6.8541   296
 6.8641   325
 6.8741   375
 6.8841   414
 6.8941   492
 6.9041   584
 6.9141   665
 6.9241   874
 6.9341  1120
 6.9441  1373
 6.9541  1695
 6.9641  2067
 6.9741  2503
 6.9841  2863
 6.9941  3252
 7.0041  3820
 7.0141  4208
 7.0241  4531
 7.0341  4732
 7.0441  4937
 7.0541  4867
 7.0641  4779
 7.0741  4643
 7.0841  4352
 7.0941  3991
 7.1041  3628
 7.1141  3203
 7.1241  2784
 7.1341  2273
 7.1441  1847
 7.1541  1431
 7.1641  1232
 7.1741   961
 7.1841   747
 7.1941   546
 7.2041   435
 7.2141   364
 7.2241   306
 7.2341   214
 7.2441   197
 7.2541   202
 7.2641   216
 7.2741   209
 7.2841   188
 7.2941   185
 7.3041   199
 7.3141   192
 7.3241   211
 7.3341   199
 7.3441   217
 7.3541   223
 7.3641   245
 7.3741   271
 7.3841   277
 7.3941   238
 7.4041   287
 7.4141   291
 7.4241   339
 7.4341   332
 7.4441   308
 7.4541   297
 7.4641   301
 7.4741   328
 7.4841   273
 7.4941   309
 7.5041   312
 7.5141   289
 7.5241   236
 7.5341   253
 7.5441   243
 7.5541   199
 7.5641   200
 7.5741   192
 7.5841   205
 7.5941   191
 7.6041   166
 7.6141   159
 7.6241   169
 7.6341   184
 7.6441   176
 7.6541   173
 7.6641   180
 7.6741   167
 7.6841   171
 7.6941   195
 7.7041   198
 7.7141   186
 7.7241   147
 7.7341   199
 7.7441   195
 7.7541   197
 7.7641   193
 7.7741   209
 7.7841   225
 7.7941   220
 7.8041   240
 7.8141   220
 7.8241   229
 7.8341   208
 7.8441   239
 7.8541   231
 7.8641   248
 7.8741   271
 7.8841   261
 7.8941   279
 7.9041   300
 7.9141   315
 7.9241   327
 7.9341   330
 7.9441   397
 7.9541   378
 7.9641   407
 7.9741   437
 7.9841   480
 7.9941   520
 8.0041   596
 8.0141   588
 8.0241   641
 8.0341   689
 8.0441   739
 8.0541   838
 8.0641   886
 8.0741   933
 8.0841   925
 8.0941   987
 8.1041  1058
 8.1141  1135
 8.1241  1162
 8.1341  1122
 8.1441  1154
 8.1541  1183
 8.1641  1220
 8.1741  1281
 8.1841  1271
 8.1941  1270
 8.2041  1290
 8.2141  1256
 8.2241  1334
 8.2341  1338
 8.2441  1334
 8.2541  1381
 8.2641  1417
 8.2741  1512
 8.2841  1638
 8.2941  1709
 8.3041  1793
 8.3141  1864
 8.3241  2038
 8.3341  2167
 8.3441  2320
 8.3541  2427
 8.3641  2477
 8.3741  2602
 8.3841  2562
 8.3941  2521
 8.4041  2546
 8.4141  2481
 8.4241  2274
 8.4341  2104
 8.4441  1940
 8.4541  1741
 8.4641  1602
 8.4741  1379
 8.4841  1210
 8.4941  1009
 8.5041   842
 8.5141   756
 8.5241   668
 8.5341   587
 8.5441   527
 8.5541   509
 8.5641   467
 8.5741   469
 8.5841   476
 8.5941   450
 8.6041   433
 8.6141   461
 8.6241   479
 8.6341   420
 8.6441   466
 8.6541   444
 8.6641   430
 8.6741   405
 8.6841   403
 8.6941   354
 8.7041   372
 8.7141   368
 8.7241   344
 8.7341   339
 8.7441   300
 8.7541   289
 8.7641   288
 8.7741   270
 8.7841   260
 8.7941   279
 8.8041   265
 8.8141   256
 8.8241   263
 8.8341   283
 8.8441   266
 8.8541   255
 8.8641   298
 8.8741   262
 8.8841   257
 8.8941   251
 8.9041   294
 8.9141   304
 8.9241   266
 8.9341   279
 8.9441   289
 8.9541   295
 8.9641   312
 8.9741   302
 8.9841   307
 8.9941   318
 9.0041   317
 9.0141   300
 9.0241   326
 9.0341   342
 9.0441   327
 9.0541   347
 9.0641   375
 9.0741   375
 9.0841   397
 9.0941   429
 9.1041   432
 9.1141   420
 9.1241   444
 9.1341   445
 9.1441   500
 9.1541   528
 9.1641   558
 9.1741   580
 9.1841   588
 9.1941   671
 9.2041   661
 9.2141   706
 9.2241   748
 9.2341   835
 9.2441   801
 9.2541   875
 9.2641   884
 9.2741   904
 9.2841   983
 9.2941   986
 9.3041  1062
 9.3141  1065
 9.3241  1145
 9.3341  1182
 9.3441  1180
 9.3541  1179
 9.3641  1183
 9.3741  1259
 9.3841  1219
 9.3941  1263
 9.4041  1260
 9.4141  1322
 9.4241  1287
 9.4341  1304
 9.4441  1304
 9.4541  1332
 9.4641  1319
 9.4741  1418
 9.4841  1379
 9.4941  1476
 9.5041  1479
 9.5141  1455
 9.5241  1546
 9.5341  1553
 9.5441  1562
 9.5541  1690
 9.5641  1740
 9.5741  1788
 9.5841  1868
 9.5941  2010
 9.6041  2080
 9.6141  2160
 9.6241  2233
 9.6341  2306
 9.6441  2432
 9.6541  2464
 9.6641  2423
 9.6741  2393
 9.6841  2391
 9.6941  2320
 9.7041  2196
 9.7141  2104
 9.7241  2002
 9.7341  1899
 9.7441  1822
 9.7541  1612
 9.7641  1532
 9.7741  1406
 9.7841  1298
 9.7941  1190
 9.8041  1146
 9.8141  1059
 9.8241   970
 9.8341   932
 9.8441   968
 9.8541   928
 9.8641   889
 9.8741   957
 9.8841   943
 9.8941   946
 9.9041  1030
 9.9141  1060
 9.9241  1049
 9.9341  1029
 9.9441  1007
 9.9541   993
 9.9641  1057
 9.9741   934
 9.9841   905
 9.9941   912
10.0041   838
10.0141   804
10.0241   730
10.0341   631
10.0441   613
10.0541   508
10.0641   498
10.0741   431
10.0841   407
10.0941   351
10.1041   335
10.1141   304
10.1241   274
10.1341   268
10.1441   249
10.1541   219
10.1641   211
10.1741   208
10.1841   220
10.1941   213
10.2041   190
10.2141   180
10.2241   183
10.2341   193
10.2441   163
10.2541   178
10.2641   157
10.2741   152
10.2841   168
10.2941   164
10.3041   168
10.3141   156
10.3241   170
10.3341   154
10.3441   148
10.3541   161
10.3641   150
10.3741   132
10.3841   139
10.3941   152
10.4041   153
10.4141   163
10.4241   143
10.4341   167
10.4441   161
10.4541   171
10.4641   153
10.4741   147
10.4841   172
10.4941   181
10.5041   165
10.5141   175
10.5241   186
10.5341   187
10.5441   174
10.5541   180
10.5641   181
10.5741   180
10.5841   164
10.5941   182
10.6041   170
10.6141   193
10.6241   209
10.6341   211
10.6441   203
10.6541   194
10.6641   211
10.6741   198
10.6841   201
10.6941   210
10.7041   219
10.7141   213
10.7241   206
10.7341   204
10.7441   255
10.7541   252
10.7641   238
10.7741   277
10.7841   275
10.7941   242
10.8041   256
10.8141   281
10.8241   273
10.8341   269
10.8441   296
10.8541   317
10.8641   300
10.8741   303
10.8841   297
10.8941   278
10.9041   308
10.9141   302
10.9241   288
10.9341   302
10.9441   307
10.9541   314
10.9641   300
10.9741   278
10.9841   281
10.9941   288
11.0041   272
11.0141   280
11.0241   291
11.0341   270
11.0441   252
11.0541   282
11.0641   263
11.0741   240
11.0841   237
11.0941   256
11.1041   247
11.1141   256
11.1241   256
11.1341   251
11.1441   275
11.1541   276
11.1641   275
11.1741   307
11.1841   305
11.1941   311
11.2041   313
11.2141   330
11.2241   349
11.2341   358
11.2441   373
11.2541   386
11.2641   390
11.2741   403
11.2841   399
11.2941   389
11.3041   382
11.3141   366
11.3241   378
11.3341   335
11.3441   330
11.3541   297
11.3641   293
11.3741   288
11.3841   269
11.3941   262
11.4041   234
11.4141   227
11.4241   221
11.4341   217
11.4441   211
11.4541   193
11.4641   198
11.4741   195
11.4841   189
11.4941   183
11.5041   191
11.5141   199
11.5241   211
11.5341   199
11.5441   197
11.5541   218
11.5641   211
11.5741   199
11.5841   187
11.5941   193
11.6041   212
11.6141   218
11.6241   217
11.6341   218
11.6441   213
11.6541   206
11.6641   215
11.6741   192
11.6841   191
11.6941   191
11.7041   189
11.7141   171
11.7241   192
11.7341   207
11.7441   187
11.7541   187
11.7641   186
11.7741   197
11.7841   199
11.7941   179
11.8041   195
11.8141   215
11.8241   213
11.8341   212
11.8441   218
11.8541   240
11.8641   246
11.8741   245
11.8841   242
11.8941   234
11.9041   233
11.9141   232
11.9241   246
11.9341   251
11.9441   236
11.9541   221
11.9641   211
11.9741   218
11.9841   226
11.9941   214
12.0041   203
12.0141   178
12.0241   174
12.0341   175
12.0441   166
12.0541   157
12.0641   167
12.0741   173
12.0841   164
12.0941   154
12.1041   165
12.1141   159
12.1241   156
12.1341   159
12.1441   158
12.1541   165
12.1641   170
12.1741   180
12.1841   171
12.1941   166
12.2041   158
12.2141   157
12.2241   162
12.2341   152
12.2441   151
12.2541   164
12.2641   159
12.2741   154
12.2841   165
12.2941   159
12.3041   157
12.3141   159
12.3241   174
12.3341   164
12.3441   156
12.3541   182
12.3641   195
12.3741   184
12.3841   178
12.3941   158
12.4041   152
12.4141   159
12.4241   162
12.4341   163
12.4441   167
12.4541   165
12.4641   158
12.4741   157
12.4841   174
12.4941   169
12.5041   175
12.5141   179
12.5241   163
12.5341   175
12.5441   185
12.5541   204
12.5641   210
12.5741   193
12.5841   189
12.5941   182
12.6041   183
12.6141   193
12.6241   202
12.6341   205
12.6441   197
12.6541   194
12.6641   199
12.6741   194
12.6841   184
12.6941   183
12.7041   187
12.7141   193
12.7241   202
12.7341   201
12.7441   194
12.7541   195
12.7641   201
12.7741   205
12.7841   200
12.7941   193
12.8041   195
12.8141   199
12.8241   195
12.8341   191
12.8441   188
12.8541   182
12.8641   185
12.8741   203
12.8841   219
12.8941   215
12.9041   201
12.9141   191
12.9241   193
12.9341   202
12.9441   208
12.9541   204
12.9641   195
12.9741   194
12.9841   200
12.9941   204
13.0041   208
13.0141   207
13.0241   221
13.0341   202
13.0441   189
13.0541   198
13.0641   215
13.0741   227
13.0841   228
13.0941   225
13.1041   215
13.1141   207
13.1241   218
13.1341   223
13.1441   202
13.1541   202
13.1641   213
13.1741   221
13.1841   239
13.1941   246
13.2041   245
13.2141   242
13.2241   241
13.2341   250
13.2441   248
13.2541   251
13.2641   261
13.2741   259
13.2841   267
13.2941   274
13.3041   291
13.3141   299
13.3241   296
13.3341   299
13.3441   295
13.3541   290
13.3641   290
13.3741   293
13.3841   287
13.3941   280
13.4041   289
13.4141   305
13.4241   303
13.4341   288
13.4441   278
13.4541   276
13.4641   277
13.4741   275
13.4841   268
13.4941   256
13.5041   248
13.5141   247
13.5241   251
13.5341   255
13.5441   253
13.5541   249
13.5641   247
13.5741   244
13.5841   242
13.5941   240
13.6041   239
13.6141   246
13.6241   261
13.6341   261
13.6441   263
13.6541   257
13.6641   241
13.6741   235
13.6841   246
13.6941   270
13.7041   264
13.7141   244
13.7241   247
13.7341   264
13.7441   259
13.7541   245
13.7641   256
13.7741   265
13.7841   264
13.7941   259
13.8041   255
13.8141   242
13.8241   250
13.8341   261
13.8441   263
13.8541   259
13.8641   254
13.8741   257
13.8841   242
13.8941   245
13.9041   253
13.9141   261
13.9241   277
13.9341   275
13.9441   269
13.9541   271
13.9641   284
13.9741   307
13.9841   312
13.9941   311
14.0041   326
14.0141   343
14.0241   357
14.0341   370
14.0441   381
14.0541   399
14.0641   424
14.0741   439
14.0841   443
14.0941   446
14.1041   454
14.1141   462
14.1241   471
14.1341   482
14.1441   482
14.1541   472
14.1641   475
14.1741   504
14.1841   501
14.1941   477
14.2041   482
14.2141   477
14.2241   430
14.2341   415
14.2441   423
14.2541   392
14.2641   368
14.2741   344
14.2841   340
14.2941   328
14.3041   308
14.3141   309
14.3241   326
14.3341   326
14.3441   316
14.3541   330
14.3641   324
14.3741   293
14.3841   278
14.3941   294
14.4041   300
14.4141   294
14.4241   310
14.4341   305
14.4441   292
14.4541   288
14.4641   293
14.4741   294
14.4841   313
14.4941   342
14.5041   325
14.5141   298
14.5241   316
14.5341   330
14.5441   300
14.5541   294
14.5641   320
14.5741   327
14.5841   316
14.5941   300
14.6041   305
14.6141   296
14.6241   296
14.6341   311
14.6441   321
14.6541   306
14.6641   305
14.6741   315
14.6841   317
14.6941   314
14.7041   320
14.7141   320
14.7241   308
14.7341   316
14.7441   324
14.7541   342
14.7641   349
14.7741   331
14.7841   341
14.7941   359
14.8041   340
14.8141   362
14.8241   369
14.8341   345
14.8441   351
14.8541   357
14.8641   379
14.8741   384
14.8841   372
14.8941   391
14.9041   401
14.9141   398
14.9241   404
14.9341   385
14.9441   381
14.9541   407
14.9641   384
14.9741   379
14.9841   388
14.9941   386
15.0041   392
15.0141   379
15.0241   376
15.0341   380
15.0441   382
15.0541   384
15.0641   377
15.0741   362
15.0841   348
15.0941   352
15.1041   340
15.1141   361
15.1241   382
15.1341   339
15.1441   328
15.1541   358
15.1641   362
15.1741   357
15.1841   365
15.1941   387
15.2041   357
15.2141   348
15.2241   349
15.2341   348
15.2441   352
15.2541   351
15.2641   348
15.2741   344
15.2841   338
15.2941   346
15.3041   357
15.3141   373
15.3241   362
15.3341   364
15.3441   354
15.3541   347
15.3641   360
15.3741   356
15.3841   342
15.3941   378
15.4041   387
15.4141   346
15.4241   374
15.4341   378
15.4441   376
15.4541   383
15.4641   364
15.4741   362
15.4841   376
15.4941   385
15.5041   392
15.5141   370
15.5241   374
15.5341   370
15.5441   379
15.5541   388
15.5641   383
15.5741   404
15.5841   414
15.5941   435
15.6041   427
15.6141   410
15.6241   404
15.6341   415
15.6441   428
15.6541   435
15.6641   479
15.6741   489
15.6841   467
15.6941   487
15.7041   483
15.7141   472
15.7241   498
15.7341   498
15.7441   512
15.7541   514
15.7641   512
15.7741   508
15.7841   510
15.7941   514
15.8041   489
15.8141   492
15.8241   497
15.8341   514
15.8441   490
15.8541   468
15.8641   455
15.8741   451
15.8841   472
15.8941   451
15.9041   427
15.9141   449
15.9241   471
15.9341   442
15.9441   416
15.9541   437
15.9641   451
15.9741   431
15.9841   422
15.9941   397
16.0041   406
16.0141   442
16.0241   432
16.0341   448
16.0441   424
16.0541   415
16.0641   430
16.0741   456
16.0841   438
16.0941   436
16.1041   461
16.1141   420
16.1241   405
16.1341   452
16.1441   465
16.1541   458
16.1641   409
16.1741   432
16.1841   447
16.1941   426
16.2041   413
16.2141   392
16.2241   413
16.2341   423
16.2441   422
16.2541   441
16.2641   426
16.2741   445
16.2841   452
16.2941   445
16.3041   438
16.3141   434
16.3241   429
16.3341   437
16.3441   438
16.3541   448
16.3641   448
16.3741   442
16.3841   425
16.3941   424
16.4041   428
16.4141   430
16.4241   435
16.4341   434
16.4441   450
16.4541   448
16.4641   464
16.4741   461
16.4841   475
16.4941   469
16.5041   461
16.5141   461
16.5241   445
16.5341   447
16.5441   449
16.5541   467
16.5641   468
16.5741   468
16.5841   452
16.5941   433
16.6041   464
16.6141   488
16.6241   461
16.6341   459
16.6441   485
16.6541   481
16.6641   459
16.6741   453
16.6841   472
16.6941   476
16.7041   468
16.7141   474
16.7241   433
16.7341   465
16.7441   460
16.7541   470
16.7641   494
16.7741   500
16.7841   499
16.7941   444
16.8041   456
16.8141   467
16.8241   460
16.8341   469
16.8441   470
16.8541   459
16.8641   459
16.8741   484
16.8841   467
16.8941   443
16.9041   429
16.9141   456
16.9241   451
16.9341   475
16.9441   503
16.9541   480
16.9641   446
16.9741   442
16.9841   432
16.9941   456
17.0041   459
17.0141   466
17.0241   474
17.0341   462
17.0441   478
17.0541   494
17.0641   483
17.0741   474
17.0841   495
17.0941   492
17.1041   478
17.1141   499
17.1241   504
17.1341   490
17.1441   463
17.1541   456
17.1641   434
17.1741   459
17.1841   477
17.1941   491
17.2041   492
17.2141   502
17.2241   503
17.2341   494
17.2441   485
17.2541   515
17.2641   546
17.2741   507
17.2841   508
17.2941   479
17.3041   497
17.3141   495
17.3241   488
17.3341   512
17.3441   515
17.3541   489
17.3641   535
17.3741   535
17.3841   520
17.3941   515
17.4041   533
17.4141   497
17.4241   501
17.4341   508
17.4441   517
17.4541   526
17.4641   529
17.4741   518
17.4841   529
17.4941   518
17.5041   502
17.5141   513
17.5241   551
17.5341   539
17.5441   511
17.5541   493
17.5641   505
17.5741   502
17.5841   532
17.5941   513
17.6041   515
17.6141   522
17.6241   495
17.6341   490
17.6441   506
17.6541   530
17.6641   517
17.6741   521
17.6841   521
17.6941   526
17.7041   523
17.7141   544
17.7241   549
17.7341   532
17.7441   508
17.7541   498
17.7641   520
17.7741   526
17.7841   537
17.7941   538
17.8041   551
17.8141   516
17.8241   527
17.8341   520
17.8441   529
17.8541   523
17.8641   518
17.8741   513
17.8841   526
17.8941   519
17.9041   505
17.9141   528
17.9241   534
17.9341   524
17.9441   522
17.9541   538
17.9641   517
17.9741   533
17.9841   563
17.9941   530
18.0041   523
18.0141   540
18.0241   567
18.0341   553
18.0441   529
18.0541   500
18.0641   514
18.0741   526
18.0841   558
18.0941   562
18.1041   560
18.1141   540
18.1241   504
18.1341   542
18.1441   527
18.1541   499
18.1641   506
18.1741   520
18.1841   508
18.1941   543
18.2041   538
18.2141   537
18.2241   540
18.2341   556
18.2441   551
18.2541   539
18.2641   534
18.2741   528
18.2841   519
18.2941   504
18.3041   543
18.3141   514
18.3241   536
18.3341   526
18.3441   496
18.3541   526
18.3641   542
18.3741   559
18.3841   558
18.3941   549
18.4041   537
18.4141   544
18.4241   556
18.4341   573
18.4441   551
18.4541   549
18.4641   529
18.4741   530
18.4841   538
18.4941   548
18.5041   546
18.5141   555
18.5241   543
18.5341   557
18.5441   572
18.5541   556
18.5641   558
18.5741   554
18.5841   590
18.5941   586
18.6041   554
18.6141   553
18.6241   586
18.6341   533
18.6441   540
18.6541   583
18.6641   591
18.6741   570
18.6841   559
18.6941   541
18.7041   534
18.7141   536
18.7241   550
18.7341   536
18.7441   549
18.7541   560
18.7641   536
18.7741   577
18.7841   545
18.7941   515
18.8041   522
18.8141   548
18.8241   535
18.8341   570
18.8441   557
18.8541   556
18.8641   552
18.8741   572
18.8841   545
18.8941   542
18.9041   568
18.9141   527
18.9241   573
18.9341   544
18.9441   537
18.9541   536
18.9641   519
18.9741   534
18.9841   555
18.9941   554
19.0041   558
19.0141   572
19.0241   549
19.0341   550
19.0441   555
19.0541   570
19.0641   585
19.0741   550
19.0841   560
19.0941   544
19.1041   562
19.1141   556
19.1241   555
19.1341   572
19.1441   550
19.1541   590
19.1641   533
19.1741   545
19.1841   545
19.1941   580
19.2041   556
19.2141   524
19.2241   526
19.2341   544
19.2441   546
19.2541   518
19.2641   514
19.2741   530
19.2841   580
19.2941   556
19.3041   562
19.3141   555
19.3241   549
19.3341   567
19.3441   546
19.3541   561
19.3641   549
19.3741   569
19.3841   596
19.3941   606
19.4041   577
19.4141   581
19.4241   582
19.4341   581
19.4441   559
19.4541   581
19.4641   582
19.4741   539
19.4841   554
19.4941   545
19.5041   565
19.5141   555
19.5241   544
19.5341   575
19.5441   555
19.5541   556
19.5641   572
19.5741   585
19.5841   570
19.5941   568
19.6041   591
19.6141   579
19.6241   573
19.6341   552
19.6441   558
19.6541   556
19.6641   564
19.6741   557
19.6841   548
19.6941   564
19.7041   586
19.7141   566
19.7241   583
19.7341   565
19.7441   555
19.7541   580
19.7641   567
19.7741   573
19.7841   544
19.7941   544
19.8041   565
19.8141   553
19.8241   577
19.8341   586
19.8441   588
19.8541   597
19.8641   547
19.8741   541
19.8841   528
19.8941   570
19.9041   551
19.9141   579
19.9241   589
19.9341   555
19.9441   571
19.9541   563
19.9641   579
19.9741   545
19.9841   548
19.9941   547
20.0041   540
20.0141   571
20.0241   559
20.0341   560
20.0441   576
20.0541   557
20.0641   556
20.0741   569
20.0841   580
20.0941   571
20.1041   573
20.1141   557
20.1241   600
20.1341   570
20.1441   604
20.1541   593
20.1641   557
20.1741   550
20.1841   550
20.1941   542
20.2041   564
20.2141   537
20.2241   564
20.2341   585
20.2441   541
20.2541   542
20.2641   529
20.2741   587
20.2841   572
20.2941   566
20.3041   544
20.3141   554
20.3241   571
20.3341   580
20.3441   582
20.3541   589
20.3641   556
20.3741   560
20.3841   569
20.3941   586
20.4041   566
20.4141   578
20.4241   557
20.4341   554
20.4441   589
20.4541   556
20.4641   568
20.4741   566
20.4841   550
20.4941   565
20.5041   563
20.5141   574
20.5241   552
20.5341   571
20.5441   586
20.5541   579
20.5641   544
20.5741   571
20.5841   571
20.5941   549
20.6041   579
20.6141   554
20.6241   541
20.6341   590
20.6441   573
20.6541   532
20.6641   555
20.6741   603
20.6841   565
20.6941   548
20.7041   549
20.7141   593
20.7241   575
20.7341   549
20.7441   542
20.7541   541
20.7641   568
20.7741   579
20.7841   549
20.7941   582
20.8041   544
20.8141   561
20.8241   606
20.8341   593
20.8441   609
20.8541   611
20.8641   601
20.8741   604
20.8841   623
20.8941   614
20.9041   629
20.9141   640
20.9241   636
20.9341   665
20.9441   700
20.9541   668
20.9641   690
20.9741   679
20.9841   670
20.9941   689
21.0041   721
21.0141   721
21.0241   740
21.0341   735
21.0441   772
21.0541   781
21.0641   703
21.0741   743
21.0841   772
21.0941   772
21.1041   797
21.1141   760
21.1241   796
21.1341   767
21.1441   801
21.1541   753
21.1641   780
21.1741   786
21.1841   795
21.1941   747
21.2041   782
21.2141   750
21.2241   754
21.2341   721
21.2441   727
21.2541   696
21.2641   675
21.2741   715
21.2841   607
21.2941   660
21.3041   628
21.3141   614
21.3241   595
21.3341   592
21.3441   627
21.3541   557
21.3641   580
21.3741   626
21.3841   587
21.3941   545
21.4041   586
21.4141   584
21.4241   590
21.4341   568
21.4441   570
21.4541   530
21.4641   527
21.4741   522
21.4841   555
21.4941   554
21.5041   580
21.5141   570
21.5241   575
21.5341   579
21.5441   531
21.5541   516
21.5641   526
21.5741   551
21.5841   523
21.5941   561
21.6041   552
21.6141   506
21.6241   549
21.6341   559
21.6441   546
21.6541   547
21.6641   527
21.6741   513
21.6841   527
21.6941   567
21.7041   568
21.7141   534
21.7241   554
21.7341   518
21.7441   537
21.7541   560
21.7641   569
21.7741   571
21.7841   537
21.7941   572
21.8041   542
21.8141   538
21.8241   533
21.8341   522
21.8441   548
21.8541   541
21.8641   515
21.8741   567
21.8841   535
21.8941   556
21.9041   509
21.9141   513
21.9241   577
21.9341   556
21.9441   554
21.9541   555
21.9641   558
21.9741   556
21.9841   588
21.9941   550
22.0041   537
22.0141   550
22.0241   566
22.0341   520
22.0441   529
22.0541   589
22.0641   540
22.0741   516
22.0841   560
22.0941   566
22.1041   489
22.1141   563
22.1241   515
22.1341   543
22.1441   489
22.1541   540
22.1641   523
22.1741   545
22.1841   548
22.1941   527
22.2041   523
22.2141   522
22.2241   525
22.2341   549
22.2441   513
22.2541   528
22.2641   520
22.2741   534
22.2841   530
22.2941   543
22.3041   542
22.3141   519
22.3241   509
22.3341   532
22.3441   536
22.3541   524
22.3641   522
22.3741   517
22.3841   555
22.3941   470
22.4041   512
22.4141   544
22.4241   523
22.4341   544
22.4441   509
22.4541   558
22.4641   557
22.4741   541
22.4841   580
22.4941   487
22.5041   504
22.5141   534
22.5241   512
22.5341   541
22.5441   526
22.5541   535
22.5641   469
22.5741   522
22.5841   498
22.5941   516
22.6041   508
22.6141   508
22.6241   548
22.6341   538
22.6441   526
22.6541   525
22.6641   523
22.6741   513
22.6841   550
22.6941   475
22.7041   526
22.7141   522
22.7241   521
22.7341   540
22.7441   499
22.7541   527
22.7641   530
22.7741   517
22.7841   513
22.7941   503
22.8041   556
22.8141   496
22.8241   523
22.8341   519
22.8441   526
22.8541   540
22.8641   511
22.8741   494
22.8841   492
22.8941   511
22.9041   518
22.9141   487
22.9241   526
22.9341   490
22.9441   512
22.9541   526
22.9641   484
22.9741   536
22.9841   516
22.9941   482
23.0041   526
23.0141   490
23.0241   527
23.0341   577
23.0441   515
23.0541   508
23.0641   472
23.0741   470
23.0841   535
23.0941   482
23.1041   521
23.1141   504
23.1241   501
23.1341   496
23.1441   477
23.1541   482
23.1641   458
23.1741   482
23.1841   530
23.1941   507
23.2041   509
23.2141   497
23.2241   498
23.2341   510
23.2441   459
23.2541   464
23.2641   512
23.2741   519
23.2841   494
23.2941   510
23.3041   515
23.3141   467
23.3241   533
23.3341   525
23.3441   452
23.3541   523
23.3641   482
23.3741   477
23.3841   509
23.3941   479
23.4041   442
23.4141   464
23.4241   471
23.4341   510
23.4441   545
23.4541   520
23.4641   483
23.4741   514
23.4841   489
23.4941   473
23.5041   528
23.5141   504
23.5241   493
23.5341   481
23.5441   530
23.5541   489
23.5641   473
23.5741   485
23.5841   519
23.5941   497
23.6041   526
23.6141   473
23.6241   511
23.6341   493
23.6441   524
23.6541   541
23.6641   479
23.6741   520
23.6841   483
23.6941   534
23.7041   557
23.7141   488
23.7241   517
23.7341   484
23.7441   509
23.7541   493
23.7641   522
23.7741   540
23.7841   526
23.7941   557
23.8041   523
23.8141   505
23.8241   525
23.8341   480
23.8441   545
23.8541   491
23.8641   481
23.8741   537
23.8841   502
23.8941   541
23.9041   523
23.9141   484
23.9241   483
23.9341   531
23.9441   528
23.9541   484
23.9641   511
23.9741   508
23.9841   458
23.9941   487
24.0041   498
24.0141   485
24.0241   493
24.0341   471
24.0441   452
24.0541   469
24.0641   485
24.0741   472
24.0841   480
24.0941   481
24.1041   486
24.1141   478
24.1241   461
24.1341   471
24.1441   467
24.1541   456
24.1641   427
24.1741   474
24.1841   474
24.1941   476
24.2041   460
24.2141   469
24.2241   505
24.2341   429
24.2441   455
24.2541   472
24.2641   464
24.2741   495
24.2841   520
24.2941   492
24.3041   452
24.3141   468
24.3241   471
24.3341   427
24.3441   471
24.3541   481
24.3641   467
24.3741   456
24.3841   456
24.3941   463
24.4041   489
24.4141   484
24.4241   447
24.4341   445
24.4441   493
24.4541   435
24.4641   426
24.4741   458
24.4841   435
24.4941   426
24.5041   432
24.5141   472
24.5241   450
24.5341   470
24.5441   430
24.5541   462
24.5641   454
24.5741   464
24.5841   444
24.5941   419
24.6041   456
24.6141   443
24.6241   433
24.6341   464
24.6441   449
24.6541   409
24.6641   450
24.6741   458
24.6841   470
24.6941   443
24.7041   414
24.7141   447
24.7241   432
24.7341   451
24.7441   435
24.7541   446
24.7641   444
24.7741   453
24.7841   475
24.7941   453
24.8041   425
24.8141   444
24.8241   396
24.8341   451
24.8441   444
24.8541   430
24.8641   435
24.8741   432
24.8841   458
24.8941   455
24.9041   421
24.9141   444
24.9241   437
24.9341   467
24.9441   439
24.9541   378
24.9641   406
24.9741   432
24.9841   481
24.9941   438
25.0041   430
25.0141   414
25.0241   409
25.0341   455
25.0441   436
25.0541   422
25.0641   435
25.0741   445
25.0841   451
25.0941   425
25.1041   447
25.1141   462
25.1241   436
25.1341   420
25.1441   431
25.1541   432
25.1641   466
25.1741   460
25.1841   445
25.1941   435
25.2041   411
25.2141   408
25.2241   431
25.2341   480
25.2441   430
25.2541   445
25.2641   440
25.2741   431
25.2841   432
25.2941   492
25.3041   470
25.3141   434
25.3241   443
25.3341   419
25.3441   434
25.3541   430
25.3641   400
25.3741   413
25.3841   397
25.3941   429
25.4041   402
25.4141   426
25.4241   450
25.4341   418
25.4441   423
25.4541   409
25.4641   400
25.4741   437
25.4841   402
25.4941   411
25.5041   434
25.5141   416
25.5241   419
25.5341   393
25.5441   442
25.5541   436
25.5641   435
25.5741   424
25.5841   400
25.5941   404
25.6041   382
25.6141   397
25.6241   406
25.6341   408
25.6441   402
25.6541   391
25.6641   405
25.6741   419
25.6841   399
25.6941   402
25.7041   436
25.7141   423
25.7241   380
25.7341   376
25.7441   391
25.7541   428
25.7641   383
25.7741   377
25.7841   379
25.7941   411
25.8041   353
25.8141   364
25.8241   402
25.8341   411
25.8441   390
25.8541   373
25.8641   406
25.8741   389
25.8841   363
25.8941   383
25.9041   420
25.9141   385
25.9241   387
25.9341   366
25.9441   380
25.9541   361
25.9641   392
25.9741   385
25.9841   357
25.9941   386
26.0041   357
26.0141   406
26.0241   410
26.0341   387
26.0441   372
26.0541   396
26.0641   385
26.0741   375
26.0841   390
26.0941   397
26.1041   392
26.1141   369
26.1241   387
26.1341   373
26.1441   370
26.1541   405
26.1641   387
26.1741   407
26.1841   375
26.1941   369
26.2041   400
26.2141   384
26.2241   366
26.2341   377
26.2441   366
26.2541   382
26.2641   370
26.2741   365
26.2841   355
26.2941   398
26.3041   359
26.3141   370
26.3241   378
26.3341   378
26.3441   394
26.3541   368
26.3641   370
26.3741   354
26.3841   375
26.3941   399
26.4041   359
26.4141   352
26.4241   324
26.4341   362
26.4441   360
26.4541   342
26.4641   381
26.4741   377
26.4841   327
26.4941   405
26.5041   363
26.5141   335
26.5241   399
26.5341   339
26.5441   382
26.5541   339
26.5641   340
26.5741   354
26.5841   378
26.5941   328
26.6041   348
26.6141   354
26.6241   344
26.6341   344
26.6441   372
26.6541   346
26.6641   352
26.6741   339
26.6841   346
26.6941   400
26.7041   339
26.7141   390
26.7241   329
26.7341   383
26.7441   329
26.7541   358
26.7641   353
26.7741   379
26.7841   357
26.7941   349
26.8041   334
26.8141   322
26.8241   341
26.8341   384
26.8441   379
26.8541   340
26.8641   339
26.8741   335
26.8841   367
26.8941   325
26.9041   364
26.9141   346
26.9241   356
26.9341   368
26.9441   332
26.9541   358
26.9641   354
26.9741   326
26.9841   320
26.9941   325
27.0041   368
27.0141   358
27.0241   346
27.0341   315
27.0441   337
27.0541   375
27.0641   365
27.0741   347
27.0841   326
27.0941   343
27.1041   352
27.1141   346
27.1241   334
27.1341   357
27.1441   343
27.1541   325
27.1641   320
27.1741   332
27.1841   368
27.1941   343
27.2041   336
27.2141   334
27.2241   330
27.2341   336
27.2441   340
27.2541   352
27.2641   321
27.2741   382
27.2841   339
27.2941   361
27.3041   319
27.3141   346
27.3241   334
27.3341   314
27.3441   305
27.3541   325
27.3641   314
27.3741   330
27.3841   302
27.3941   299
27.4041   319
27.4141   303
27.4241   303
27.4341   322
27.4441   318
27.4541   313
27.4641   327
27.4741   319
27.4841   319
27.4941   359
27.5041   336
27.5141   344
27.5241   304
27.5341   330
27.5441   302
27.5541   330
27.5641   316
27.5741   330
27.5841   321
27.5941   325
27.6041   317
27.6141   278
27.6241   299
27.6341   295
27.6441   301
27.6541   335
27.6641   315
27.6741   320
27.6841   305
27.6941   318
27.7041   334
27.7141   319
27.7241   309
27.7341   302
27.7441   312
27.7541   311
27.7641   290
27.7741   314
27.7841   286
27.7941   298
27.8041   312
27.8141   343
27.8241   295
27.8341   310
27.8441   305
27.8541   331
27.8641   303
27.8741   301
27.8841   269
27.8941   323
27.9041   294
27.9141   321
27.9241   316
27.9341   342
27.9441   315
27.9541   292
27.9641   285
27.9741   311
27.9841   278
27.9941   304
28.0041   308
28.0141   284
28.0241   292
28.0341   324
28.0441   324
28.0541   298
28.0641   289
28.0741   307
28.0841   278
28.0941   286
28.1041   281
28.1141   280
28.1241   282
28.1341   305
28.1441   294
28.1541   306
28.1641   291
28.1741   288
28.1841   317
28.1941   287
28.2041   288
28.2141   275
28.2241   290
28.2341   294
28.2441   293
28.2541   306
28.2641   288
28.2741   299
28.2841   278
28.2941   273
28.3041   266
28.3141   284
28.3241   309
28.3341   306
28.3441   284
28.3541   294
28.3641   277
28.3741   258
28.3841   285
28.3941   267
28.4041   298
28.4141   296
28.4241   301
28.4341   281
28.4441   302
28.4541   300
28.4641   291
28.4741   268
28.4841   292
28.4941   290
28.5041   279
28.5141   281
28.5241   292
28.5341   301
28.5441   283
28.5541   279
28.5641   309
28.5741   282
28.5841   266
28.5941   294
28.6041   276
28.6141   264
28.6241   302
28.6341   285
28.6441   262
28.6541   294
28.6641   282
28.6741   276
28.6841   269
28.6941   272
28.7041   255
28.7141   270
28.7241   290
28.7341   291
28.7441   262
28.7541   271
28.7641   259
28.7741   265
28.7841   267
28.7941   265
28.8041   289
28.8141   258
28.8241   254
28.8341   269
28.8441   276
28.8541   271
28.8641   277
28.8741   277
28.8841   304
28.8941   250
28.9041   265
28.9141   263
28.9241   268
28.9341   281
28.9441   266
28.9541   250
28.9641   264
28.9741   249
28.9841   249
28.9941   268
29.0041   281
29.0141   245
29.0241   248
29.0341   251
29.0441   256
29.0541   266
29.0641   281
29.0741   276
29.0841   282
29.0941   241
29.1041   243
29.1141   264
29.1241   250
29.1341   255
29.1441   226
29.1541   269
29.1641   270
29.1741   266
29.1841   248
29.1941   252
29.2041   245
29.2141   236
29.2241   260
29.2341   257
29.2441   239
29.2541   272
29.2641   258
29.2741   253
29.2841   258
29.2941   240
29.3041   228
29.3141   266
29.3241   244
29.3341   220
29.3441   253
29.3541   260
29.3641   237
29.3741   277
29.3841   241
29.3941   247
29.4041   247
29.4141   221
29.4241   265
29.4341   218
29.4441   250
29.4541   238
29.4641   242
29.4741   238
29.4841   245
29.4941   231
29.5041   240
29.5141   248
29.5241   222
29.5341   233
29.5441   241
29.5541   243
29.5641   224
29.5741   229
29.5841   262
29.5941   267
29.6041   263
29.6141   247
29.6241   203
29.6341   256
29.6441   224
29.6541   259
29.6641   229
29.6741   229
29.6841   227
29.6941   240
29.7041   243
29.7141   232
29.7241   216
29.7341   222
29.7441   212
29.7541   235
29.7641   238
29.7741   239
29.7841   204
29.7941   229
29.8041   226
29.8141   232
29.8241   245
29.8341   250
29.8441   234
29.8541   247
29.8641   197
29.8741   210
29.8841   239
29.8941   259
29.9041   213
29.9141   222
29.9241   251
29.9341   237
29.9441   224
29.9541   228
29.9641   235
29.9741   239
29.9841   212
29.9941   240
30.0041   264
30.0141   230
30.0241   229
30.0341   223
30.0441   211
30.0541   224
30.0641   238
30.0741   227
30.0841   213
30.0941   202
30.1041   223
30.1141   232
30.1241   215
30.1341   222
30.1441   222
30.1541   240
30.1641   237
30.1741   227
30.1841   260
30.1941   235
30.2041   210
30.2141   214
30.2241   198
30.2341   231
30.2441   198
30.2541   204
30.2641   224
30.2741   217
30.2841   201
30.2941   206
30.3041   185
30.3141   195
30.3241   225
30.3341   207
30.3441   199
30.3541   228
30.3641   205
30.3741   199
30.3841   210
30.3941   204
30.4041   202
30.4141   224
30.4241   235
30.4341   236
30.4441   199
30.4541   216
30.4641   233
30.4741   201
30.4841   219
30.4941   179
30.5041   208
30.5141   223
30.5241   210
30.5341   202
30.5441   207
30.5541   192
30.5641   218
30.5741   219
30.5841   209
30.5941   207
30.6041   191
30.6141   212
30.6241   223
30.6341   181
30.6441   212
30.6541   178
30.6641   187
30.6741   199
30.6841   210
30.6941   205
30.7041   198
30.7141   203
30.7241   223
30.7341   201
30.7441   219
30.7541   194
30.7641   183
30.7741   203
30.7841   197
30.7941   212
30.8041   190
30.8141   200
30.8241   205
30.8341   187
30.8441   198
30.8541   198
30.8641   182
30.8741   223
30.8841   194
30.8941   203
30.9041   189
30.9141   208
30.9241   185
30.9341   183
30.9441   196
30.9541   175
30.9641   188
30.9741   202
30.9841   207
30.9941   172
31.0041   185
31.0141   206
31.0241   199
31.0341   153
31.0441   189
31.0541   202
31.0641   207
31.0741   201
31.0841   201
31.0941   216
31.1041   178
31.1141   185
31.1241   204
31.1341   212
31.1441   178
31.1541   173
31.1641   179
31.1741   187
31.1841   194
31.1941   182
31.2041   177
31.2141   177
31.2241   187
31.2341   189
31.2441   190
31.2541   201
31.2641   167
31.2741   192
31.2841   191
31.2941   177
31.3041   187
31.3141   190
31.3241   183
31.3341   181
31.3441   179
31.3541   180
31.3641   187
31.3741   188
31.3841   202
31.3941   183
31.4041   161
31.4141   177
31.4241   187
31.4341   197
31.4441   182
31.4541   158
31.4641   199
31.4741   192
31.4841   172
31.4941   167
31.5041   191
31.5141   180
31.5241   182
31.5341   167
31.5441   172
31.5541   179
31.5641   152
31.5741   175
31.5841   171
31.5941   172
31.6041   166
31.6141   179
31.6241   185
31.6341   165
31.6441   166
31.6541   172
31.6641   183
31.6741   181
31.6841   166
31.6941   177
31.7041   192
31.7141   165
31.7241   158
31.7341   157
31.7441   164
31.7541   158
31.7641   153
31.7741   159
31.7841   162
31.7941   161
31.8041   169
31.8141   181
31.8241   193
31.8341   165
31.8441   187
31.8541   182
31.8641   178
31.8741   165
31.8841   159
31.8941   160
31.9041   154
31.9141   160
31.9241   160
31.9341   171
31.9441   168
31.9541   186
31.9641   181
31.9741   167
31.9841   184
31.9941   186
32.0041   188
32.0141   165
32.0241   158
32.0341   169
32.0441   164
32.0541   154
32.0641   148
32.0741   149
32.0841   167
32.0941   158
32.1041   157
32.1141   155
32.1241   138
32.1341   144
32.1441   154
32.1541   148
32.1641   168
32.1741   137
32.1841   147
32.1941   163
32.2041   139
32.2141   154
32.2241   152
32.2341   166
32.2441   152
32.2541   152
32.2641   165
32.2741   178
32.2841   139
32.2941   169
32.3041   139
32.3141   153
32.3241   171
32.3341   149
32.3441   160
32.3541   147
32.3641   191
32.3741   157
32.3841   142
32.3941   154
32.4041   182
32.4141   158
32.4241   146
32.4341   150
32.4441   163
32.4541   149
32.4641   147
32.4741   159
32.4841   159
32.4941   148
32.5041   148
32.5141   156
32.5241   136
32.5341   146
32.5441   133
32.5541   151
32.5641   152
32.5741   132
32.5841   152
32.5941   174
32.6041   153
32.6141   151
32.6241   127
32.6341   127
32.6441   149
32.6541   157
32.6641   143
32.6741   149
32.6841   139
32.6941   149
32.7041   159
32.7141   147
32.7241   152
32.7341   139
32.7441   147
32.7541   139
32.7641   126
32.7741   143
32.7841   123
32.7941   126
32.8041   138
32.8141   140
32.8241   149
32.8341   144
32.8441   143
32.8541   140
32.8641   122
32.8741   147
32.8841   133
32.8941   149
32.9041   133
32.9141   127
32.9241   136
32.9341   118
32.9441   112
32.9541   137
32.9641   129
32.9741   148
32.9841   147
32.9941   136
33.0041   138
33.0141   140
33.0241   124
33.0341   146
33.0441   130
33.0541   121
33.0641   130
33.0741   142
33.0841   133
33.0941   142
33.1041   116
33.1141   141
33.1241   130
33.1341   113
33.1441   122
33.1541   135
33.1641   140
33.1741   112
33.1841   130
33.1941   139
33.2041   145
33.2141   126
33.2241   129
33.2341   119
33.2441   131
33.2541   138
33.2641   137
33.2741   127
33.2841   127
33.2941   127
33.3041   137
33.3141   121
33.3241   125
33.3341   146
33.3441   162
33.3541   138
33.3641   133
33.3741   139
33.3841   133
33.3941   119
33.4041   127
33.4141   126
33.4241   116
33.4341   118
33.4441   137
33.4541   127
33.4641   115
33.4741   114
33.4841   114
33.4941   132
33.5041   119
33.5141   134
33.5241   115
33.5341   130
33.5441   128
33.5541   125
33.5641   120
33.5741   122
33.5841   117
33.5941   137
33.6041   116
33.6141   124
33.6241   122
33.6341   116
33.6441   134
33.6541    95
33.6641   115
33.6741   120
33.6841   126
33.6941   116
33.7041   126
33.7141   120
33.7241   113
33.7341   115
33.7441   108
33.7541   121
33.7641   121
33.7741   127
33.7841   114
33.7941   121
33.8041   106
33.8141   101
33.8241   108
33.8341   121
33.8441   114
33.8541   120
33.8641   120
33.8741   110
33.8841   109
33.8941   120
33.9041    99
33.9141   111
33.9241   112
33.9341   122
33.9441   120
33.9541   117
33.9641   130
33.9741   103
33.9841   125
33.9941   115
34.0041    97
34.0141   122
34.0241   127
34.0341    90
34.0441   116
34.0541   109
34.0641   118
34.0741   120
34.0841   112
34.0941   113
34.1041   110
34.1141    99
34.1241   109
34.1341   118
34.1441   103
34.1541   115
34.1641    90
34.1741   107
34.1841   114
34.1941   114
34.2041    98
34.2141   106
34.2241   111
34.2341    96
34.2441   106
34.2541   110
34.2641    94
34.2741   109
34.2841    88
34.2941    94
34.3041    98
34.3141    94
34.3241   103
34.3341    98
34.3441   110
34.3541   115
34.3641   100
34.3741   113
34.3841    99
34.3941   115
34.4041    93
34.4141   119
34.4241   100
34.4341   104
34.4441    91
34.4541   108
34.4641   115
34.4741   112
34.4841   113
34.4941   103
34.5041    93
34.5141   109
34.5241   120
34.5341   103
34.5441   108
34.5541    83
34.5641    99
34.5741   109
34.5841    90
34.5941    96
34.6041   100
34.6141    78
34.6241    99
34.6341    97
34.6441   100
34.6541    99
34.6641   112
34.6741    87
34.6841    95
34.6941   102
34.7041    99
34.7141   106
34.7241   119
34.7341    93
34.7441    94
34.7541    82
34.7641   102
34.7741   102
34.7841    94
34.7941    99
34.8041    92
34.8141    99
34.8241   102
34.8341    91
34.8441   102
34.8541    90
34.8641   109
34.8741    92
34.8841    79
34.8941    89
34.9041    94
34.9141   109
34.9241    97
34.9341   119
34.9441   117
34.9541    85
34.9641   114
34.9741   106
34.9841    94
34.9941    84
35.0041   105
35.0141    97
35.0241    79
35.0341    87
35.0441    85
35.0541    92
35.0641   100
35.0741   102
35.0841    85
35.0941    90
35.1041    91
35.1141   100
35.1241    93
35.1341    86
35.1441    81
35.1541    76
35.1641    81
35.1741    85
35.1841    91
35.1941    84
35.2041    87
35.2141    93
35.2241    82
35.2341    84
35.2441    93
35.2541    96
35.2641    82
35.2741    79
35.2841    82
35.2941    84
35.3041    88
35.3141    75
35.3241    94
35.3341    85
35.3441    91
35.3541    73
35.3641    82
35.3741    85
35.3841    80
35.3941    95
35.4041    74
35.4141    85
35.4241    77
35.4341    84
35.4441    76
35.4541    96
35.4641    84
35.4741    85
35.4841    81
35.4941    83
35.5041    83
35.5141    82
35.5241    96
35.5341    71
35.5441    91
35.5541    86
35.5641    97
35.5741    92
35.5841    93
35.5941    68
35.6041    76
35.6141    87
35.6241    77
35.6341    76
35.6441    77
35.6541    86
35.6641    74
35.6741    80
35.6841    81
35.6941    78
35.7041    74
35.7141    86
35.7241    68
35.7341    78
35.7441    81
35.7541    80
35.7641    66
35.7741    88
35.7841    90
35.7941    74
35.8041    64
35.8141    75
35.8241    63
35.8341    56
35.8441    84
35.8541    73
35.8641    75
35.8741    63
35.8841    73
35.8941    69
35.9041    75
35.9141    75
35.9241    72
35.9341    74
35.9441    58
35.9541    65
35.9641    71
35.9741    63
35.9841    89
35.9941    74
36.0041    82
36.0141    72
36.0241    82
36.0341    65
36.0441    70
36.0541    70
36.0641    71
36.0741    75
36.0841    75
36.0941    84
36.1041    75
36.1141    76
36.1241    65
36.1341    88
36.1441    82
36.1541    77
36.1641    88
36.1741    74
36.1841    74
36.1941    66
36.2041    67
36.2141    68
36.2241    65
36.2341    81
36.2441    68
36.2541    75
36.2641    72
36.2741    73
36.2841    83
36.2941    61
36.3041    59
36.3141    71
36.3241    78
36.3341    64
36.3441    76
36.3541    62
36.3641    69
36.3741    84
36.3841    72
36.3941    61
36.4041    70
36.4141    70
36.4241    62
36.4341    72
36.4441    78
36.4541    78
36.4641    64
36.4741    58
36.4841    77
36.4941    49
36.5041    71
36.5141    76
36.5241    59
36.5341    59
36.5441    72
36.5541    65
36.5641    67
36.5741    64
36.5841    61
36.5941    59
36.6041    65
36.6141    57
36.6241    61
36.6341    71
36.6441    57
36.6541    56
36.6641    58
36.6741    54
36.6841    57
36.6941    60
36.7041    71
36.7141    52
36.7241    57
36.7341    72
36.7441    58
36.7541    50
36.7641    69
36.7741    67
36.7841    64
36.7941    63
36.8041    70
36.8141    51
36.8241    76
36.8341    58
36.8441    66
36.8541    44
36.8641    53
36.8741    63
36.8841    63
36.8941    59
36.9041    54
36.9141    55
36.9241    55
36.9341    55
36.9441    52
36.9541    63
36.9641    48
36.9741    52
36.9841    62
36.9941    74
37.0041    67
37.0141    76
37.0241    52
37.0341    57
37.0441    62
37.0541    62
37.0641    64
37.0741    57
37.0841    57
37.0941    57
37.1041    65
37.1141    51
37.1241    64
37.1341    35
37.1441    55
37.1541    65
37.1641    39
37.1741    45
37.1841    63
37.1941    42
37.2041    56
37.2141    60
37.2241    45
37.2341    51
37.2441    49
37.2541    60
37.2641    52
37.2741    52
37.2841    54
37.2941    57
37.3041    51
37.3141    48
37.3241    50
37.3341    47
37.3441    57
37.3541    48
37.3641    54
37.3741    56
37.3841    60
37.3941    58
37.4041    52
37.4141    51
37.4241    60
37.4341    54
37.4441    57
37.4541    39
37.4641    54
37.4741    49
37.4841    67
37.4941    60
37.5041    57
37.5141    53
37.5241    52
37.5341    53
37.5441    33
37.5541    50
37.5641    52
37.5741    57
37.5841    48
37.5941    57
37.6041    68
37.6141    47
37.6241    53
37.6341    55
37.6441    44
37.6541    56
37.6641    47
37.6741    39
37.6841    60
37.6941    56
37.7041    38
37.7141    43
37.7241    47
37.7341    55
37.7441    43
37.7541    52
37.7641    50
37.7741    53
37.7841    48
37.7941    47
37.8041    50
37.8141    41
37.8241    44
37.8341    42
37.8441    46
37.8541    58
37.8641    56
37.8741    51
37.8841    42
37.8941    43
37.9041    49
37.9141    51
37.9241    45
37.9341    52
37.9441    49
37.9541    51
37.9641    46
37.9741    52
37.9841    38
37.9941    37
38.0041    42
38.0141    46
38.0241    47
38.0341    34
38.0441    43
38.0541    46
38.0641    47
38.0741    49
38.0841    43
38.0941    41
38.1041    38
38.1141    54
38.1241    44
38.1341    38
38.1441    42
38.1541    43
38.1641    40
38.1741    48
38.1841    41
38.1941    34
38.2041    38
38.2141    45
38.2241    30
38.2341    39
38.2441    44
38.2541    43
38.2641    53
38.2741    29
38.2841    34
38.2941    54
38.3041    45
38.3141    39
38.3241    43
38.3341    30
38.3441    44
38.3541    40
38.3641    49
38.3741    35
38.3841    40
38.3941    39
38.4041    40
38.4141    36
38.4241    32
38.4341    33
38.4441    29
38.4541    32
38.4641    41
38.4741    28
38.4841    31
38.4941    32
38.5041    33
38.5141    44
38.5241    41
38.5341    32
38.5441    32
38.5541    46
38.5641    37
38.5741    37
38.5841    39
38.5941    43
38.6041    44
38.6141    43
38.6241    23
38.6341    36
38.6441    34
38.6541    30
38.6641    40
38.6741    27
38.6841    44
38.6941    42
38.7041    38
38.7141    39
38.7241    32
38.7341    45
38.7441    37
38.7541    36
38.7641    28
38.7741    37
38.7841    34
38.7941    30
38.8041    28
38.8141    36
38.8241    42
38.8341    39
38.8441    27
38.8541    23
38.8641    42
38.8741    41
38.8841    28
38.8941    45
38.9041    35
38.9141    29
38.9241    29
38.9341    37
38.9441    33
38.9541    31
38.9641    28
38.9741    35
38.9841    42
38.9941    34
39.0041    31
39.0141    31
39.0241    33
39.0341    27
39.0441    28
39.0541    25
39.0641    27
39.0741    32
39.0841    31
39.0941    24
39.1041    31
39.1141    26
39.1241    26
39.1341    28
39.1441    30
39.1541    33
39.1641    30
39.1741    39
39.1841    24
39.1941    36
39.2041    24
39.2141    25
39.2241    38
39.2341    36
39.2441    36
39.2541    27
39.2641    28
39.2741    32
39.2841    30
39.2941    25
39.3041    26
39.3141    26
39.3241    20
39.3341    18
39.3441    23
39.3541    30
39.3641    18
39.3741    23
39.3841    40
39.3941    21
39.4041    20
39.4141    25
39.4241    26
39.4341    18
39.4441    34
39.4541    28
39.4641    29
39.4741    28
39.4841    36
39.4941    27
39.5041    35
39.5141    28
39.5241    30
39.5341    29
39.5441    28
39.5541    28
39.5641    24
39.5741    33
39.5841    21
39.5941    25
39.6041    19
39.6141    24
39.6241    32
39.6341    23
39.6441    30
39.6541    31
39.6641    36
39.6741    18
39.6841    28
39.6941    20
39.7041    28
39.7141    26
39.7241    25
39.7341    21
39.7441    20
39.7541    22
39.7641    23
39.7741    19
39.7841    15
39.7941    22
39.8041    28
39.8141    21
39.8241    17
39.8341    28
39.8441    25
39.8541    24
39.8641    20
39.8741    22
39.8841    23
39.8941    20
39.9041    24
39.9141    24
39.9241    16
39.9341    28
39.9441    11
39.9541    21
39.9641    32
39.9741    24
39.9841    17
