Bruker Nano GmbH Berlin, Germany
Esprit 1.9

Date: 5/14/2021 1:32:18 PM
Real time: 15351
Life time: 14303
Pulse density: 102608


Detector type: XFlash 430
Window type: Custom type
Detector thickness: 0.45
Si dead layer:0.029

Calibration, lin.: 10
Calibration, abs.: -955.9
Mn FWHM: 137.05
Fano factor: 0.121
Channels: 4095

Energy Counts
-0.9559     0
-0.9459     0
-0.9359     0
-0.9259     0
-0.9159     0
-0.9059     0
-0.8959     0
-0.8859     0
-0.8759     0
-0.8659     0
-0.8559     0
-0.8459     0
-0.8359     0
-0.8259     0
-0.8159     0
-0.8059     0
-0.7959     0
-0.7859     0
-0.7759     0
-0.7659     0
-0.7559     0
-0.7459     0
-0.7359     0
-0.7259     0
-0.7159     0
-0.7059     0
-0.6959     0
-0.6859     0
-0.6759     0
-0.6659     0
-0.6559     0
-0.6459     0
-0.6359     0
-0.6259     0
-0.6159     0
-0.6059     0
-0.5959     0
-0.5859     0
-0.5759     0
-0.5659     0
-0.5559     0
-0.5459     0
-0.5359     0
-0.5259     0
-0.5159     0
-0.5059     0
-0.4959     0
-0.4859     0
-0.4759     0
-0.4659     0
-0.4559     0
-0.4459     0
-0.4359     0
-0.4259     0
-0.4159     0
-0.4059     0
-0.3959     0
-0.3859     0
-0.3759     0
-0.3659     0
-0.3559     0
-0.3459     0
-0.3359     0
-0.3259     0
-0.3159     0
-0.3059     0
-0.2959     0
-0.2859     0
-0.2759     0
-0.2659     0
-0.2559     0
-0.2459     0
-0.2359     0
-0.2259     0
-0.2159     0
-0.2059     0
-0.1959     0
-0.1859     0
-0.1759     0
-0.1659     0
-0.1559     0
-0.1459     0
-0.1359     0
-0.1259     1
-0.1159     2
-0.1059     6
-0.0959    42
-0.0859   182
-0.0759   554
-0.0659  1641
-0.0559  4188
-0.0459  9243
-0.0359 16794
-0.0259 27130
-0.0159 37346
-0.0059 43922
 0.0041 44044
 0.0141 38175
 0.0241 27874
 0.0341 17528
 0.0441  9758
 0.0541  4559
 0.0641  1803
 0.0741   622
 0.0841   186
 0.0941    48
 0.1041     9
 0.1141     4
 0.1241     5
 0.1341     6
 0.1441     6
 0.1541     0
 0.1641     0
 0.1741    13
 0.1841   140
 0.1941   247
 0.2041   234
 0.2141   231
 0.2241   215
 0.2341   237
 0.2441   230
 0.2541   231
 0.2641   244
 0.2741   220
 0.2841   219
 0.2941   249
 0.3041   237
 0.3141   227
 0.3241   221
 0.3341   213
 0.3441   220
 0.3541   199
 0.3641   205
 0.3741   221
 0.3841   220
 0.3941   207
 0.4041   188
 0.4141   188
 0.4241   181
 0.4341   214
 0.4441   203
 0.4541   183
 0.4641   200
 0.4741   206
 0.4841   206
 0.4941   186
 0.5041   194
 0.5141   191
 0.5241   184
 0.5341   196
 0.5441   177
 0.5541   177
 0.5641   184
 0.5741   171
 0.5841   184
 0.5941   175
 0.6041   166
 0.6141   181
 0.6241   188
 0.6341   180
 0.6441   169
 0.6541   181
 0.6641   195
 0.6741   194
 0.6841   178
 0.6941   166
 0.7041   189
 0.7141   185
 0.7241   152
 0.7341   162
 0.7441   171
 0.7541   166
 0.7641   171
 0.7741   172
 0.7841   162
 0.7941   164
 0.8041   169
 0.8141   158
 0.8241   164
 0.8341   159
 0.8441   161
 0.8541   163
 0.8641   150
 0.8741   158
 0.8841   174
 0.8941   168
 0.9041   153
 0.9141   161
 0.9241   165
 0.9341   161
 0.9441   164
 0.9541   159
 0.9641   143
 0.9741   143
 0.9841   158
 0.9941   147
 1.0041   154
 1.0141   161
 1.0241   178
 1.0341   170
 1.0441   169
 1.0541   158
 1.0641   138
 1.0741   133
 1.0841   157
 1.0941   170
 1.1041   158
 1.1141   140
 1.1241   139
 1.1341   134
 1.1441   136
 1.1541   144
 1.1641   130
 1.1741   130
 1.1841   147
 1.1941   138
 1.2041   141
 1.2141   133
 1.2241   137
 1.2341   143
 1.2441   137
 1.2541   153
 1.2641   147
 1.2741   145
 1.2841   142
 1.2941   151
 1.3041   127
 1.3141   147
 1.3241   145
 1.3341   118
 1.3441   114
 1.3541   131
 1.3641   141
 1.3741   135
 1.3841   144
 1.3941   135
 1.4041   118
 1.4141   142
 1.4241   147
 1.4341   128
 1.4441   127
 1.4541   141
 1.4641   124
 1.4741   125
 1.4841   132
 1.4941   128
 1.5041   130
 1.5141   137
 1.5241   130
 1.5341   111
 1.5441   130
 1.5541   134
 1.5641   130
 1.5741   135
 1.5841   128
 1.5941   130
 1.6041   124
 1.6141   146
 1.6241   129
 1.6341   127
 1.6441   151
 1.6541   168
 1.6641   217
 1.6741   251
 1.6841   285
 1.6941   357
 1.7041   442
 1.7141   476
 1.7241   550
 1.7341   590
 1.7441   613
 1.7541   597
 1.7641   539
 1.7741   481
 1.7841   369
 1.7941   324
 1.8041   257
 1.8141   217
 1.8241   196
 1.8341   189
 1.8441   191
 1.8541   167
 1.8641   138
 1.8741   147
 1.8841   121
 1.8941   135
 1.9041   148
 1.9141   136
 1.9241   131
 1.9341   124
 1.9441   136
 1.9541   120
 1.9641   137
 1.9741   118
 1.9841   160
 1.9941   145
 2.0041   183
 2.0141   158
 2.0241   180
 2.0341   173
 2.0441   137
 2.0541   143
 2.0641   131
 2.0741   114
 2.0841   129
 2.0941   150
 2.1041   118
 2.1141   123
 2.1241   125
 2.1341   128
 2.1441   118
 2.1541   117
 2.1641   114
 2.1741   123
 2.1841   124
 2.1941   120
 2.2041   123
 2.2141   118
 2.2241   112
 2.2341   122
 2.2441   101
 2.2541   123
 2.2641   119
 2.2741   123
 2.2841   105
 2.2941   109
 2.3041   111
 2.3141   108
 2.3241   114
 2.3341   111
 2.3441   117
 2.3541   127
 2.3641   105
 2.3741   115
 2.3841   112
 2.3941   101
 2.4041   107
 2.4141   114
 2.4241    98
 2.4341   126
 2.4441    92
 2.4541   106
 2.4641    98
 2.4741    97
 2.4841    94
 2.4941    96
 2.5041    82
 2.5141   119
 2.5241    93
 2.5341    99
 2.5441   117
 2.5541    90
 2.5641    97
 2.5741   108
 2.5841    97
 2.5941   113
 2.6041   119
 2.6141   114
 2.6241    98
 2.6341   105
 2.6441   104
 2.6541   123
 2.6641    89
 2.6741   119
 2.6841   100
 2.6941   103
 2.7041    80
 2.7141    89
 2.7241    94
 2.7341    87
 2.7441   114
 2.7541   101
 2.7641    98
 2.7741    85
 2.7841    94
 2.7941    88
 2.8041   110
 2.8141   108
 2.8241   106
 2.8341   109
 2.8441   105
 2.8541   114
 2.8641   109
 2.8741    96
 2.8841    89
 2.8941    91
 2.9041   109
 2.9141    89
 2.9241   104
 2.9341    86
 2.9441    97
 2.9541    79
 2.9641   101
 2.9741    91
 2.9841   119
 2.9941   118
 3.0041    99
 3.0141    97
 3.0241    88
 3.0341    89
 3.0441   103
 3.0541    86
 3.0641    83
 3.0741    75
 3.0841    89
 3.0941    77
 3.1041    65
 3.1141    87
 3.1241    90
 3.1341    94
 3.1441   101
 3.1541    93
 3.1641    81
 3.1741    89
 3.1841    80
 3.1941   101
 3.2041    97
 3.2141    93
 3.2241    85
 3.2341   113
 3.2441   122
 3.2541   138
 3.2641   141
 3.2741   146
 3.2841   179
 3.2941   176
 3.3041   174
 3.3141   175
 3.3241   172
 3.3341   158
 3.3441   169
 3.3541   159
 3.3641   148
 3.3741   125
 3.3841   109
 3.3941    91
 3.4041    86
 3.4141    81
 3.4241    84
 3.4341    70
 3.4441    81
 3.4541    79
 3.4641    79
 3.4741    75
 3.4841    82
 3.4941    77
 3.5041    86
 3.5141    90
 3.5241    86
 3.5341    97
 3.5441   114
 3.5541   121
 3.5641   149
 3.5741   167
 3.5841   203
 3.5941   260
 3.6041   323
 3.6141   411
 3.6241   497
 3.6341   631
 3.6441   730
 3.6541   890
 3.6641  1004
 3.6741  1129
 3.6841  1120
 3.6941  1131
 3.7041  1073
 3.7141  1036
 3.7241   929
 3.7341   774
 3.7441   646
 3.7541   478
 3.7641   391
 3.7741   254
 3.7841   210
 3.7941   187
 3.8041   151
 3.8141   109
 3.8241   101
 3.8341    85
 3.8441    70
 3.8541    87
 3.8641    70
 3.8741    68
 3.8841    79
 3.8941    84
 3.9041    81
 3.9141    79
 3.9241   111
 3.9341   116
 3.9441   137
 3.9541   147
 3.9641   179
 3.9741   211
 3.9841   222
 3.9941   215
 4.0041   252
 4.0141   252
 4.0241   237
 4.0341   215
 4.0441   206
 4.0541   189
 4.0641   162
 4.0741   160
 4.0841   130
 4.0941   123
 4.1041    88
 4.1141    80
 4.1241    81
 4.1341    81
 4.1441    75
 4.1541    71
 4.1641    66
 4.1741    55
 4.1841    47
 4.1941    62
 4.2041    46
 4.2141    48
 4.2241    58
 4.2341    53
 4.2441    60
 4.2541    75
 4.2641    57
 4.2741    59
 4.2841    58
 4.2941    64
 4.3041    67
 4.3141    62
 4.3241    60
 4.3341    58
 4.3441    68
 4.3541    84
 4.3641    76
 4.3741    89
 4.3841    96
 4.3941   114
 4.4041   145
 4.4141   169
 4.4241   203
 4.4341   241
 4.4441   258
 4.4541   342
 4.4641   387
 4.4741   426
 4.4841   488
 4.4941   483
 4.5041   495
 4.5141   500
 4.5241   498
 4.5341   410
 4.5441   383
 4.5541   361
 4.5641   333
 4.5741   291
 4.5841   230
 4.5941   172
 4.6041   119
 4.6141   109
 4.6241    98
 4.6341   115
 4.6441    97
 4.6541    95
 4.6641    76
 4.6741    82
 4.6841    77
 4.6941    96
 4.7041    78
 4.7141    64
 4.7241    82
 4.7341    59
 4.7441    68
 4.7541    70
 4.7641    85
 4.7741    95
 4.7841    90
 4.7941    86
 4.8041    87
 4.8141    90
 4.8241   100
 4.8341    99
 4.8441   123
 4.8541   109
 4.8641   153
 4.8741   139
 4.8841   153
 4.8941   155
 4.9041   166
 4.9141   187
 4.9241   160
 4.9341   160
 4.9441   168
 4.9541   153
 4.9641   162
 4.9741   144
 4.9841   135
 4.9941   120
 5.0041   103
 5.0141   112
 5.0241    99
 5.0341    88
 5.0441    91
 5.0541    91
 5.0641    61
 5.0741    72
 5.0841    78
 5.0941    80
 5.1041    76
 5.1141    78
 5.1241    84
 5.1341    78
 5.1441    64
 5.1541    60
 5.1641    70
 5.1741    75
 5.1841    65
 5.1941    68
 5.2041    76
 5.2141    73
 5.2241    58
 5.2341    63
 5.2441    71
 5.2541    90
 5.2641    88
 5.2741    73
 5.2841    80
 5.2941    65
 5.3041    75
 5.3141    82
 5.3241    72
 5.3341   111
 5.3441    89
 5.3541   110
 5.3641   110
 5.3741   120
 5.3841   120
 5.3941   133
 5.4041   149
 5.4141   142
 5.4241   150
 5.4341   135
 5.4441   135
 5.4541   102
 5.4641   120
 5.4741   117
 5.4841   107
 5.4941   109
 5.5041   116
 5.5141    95
 5.5241    93
 5.5341    87
 5.5441    84
 5.5541    88
 5.5641    82
 5.5741    80
 5.5841    83
 5.5941    72
 5.6041    86
 5.6141    85
 5.6241    92
 5.6341    71
 5.6441    68
 5.6541    78
 5.6641    71
 5.6741    79
 5.6841    89
 5.6941    65
 5.7041    78
 5.7141    78
 5.7241    80
 5.7341    98
 5.7441    92
 5.7541    94
 5.7641    85
 5.7741   101
 5.7841   116
 5.7941   160
 5.8041   186
 5.8141   223
 5.8241   204
 5.8341   271
 5.8441   315
 5.8541   279
 5.8641   354
 5.8741   339
 5.8841   353
 5.8941   367
 5.9041   389
 5.9141   318
 5.9241   351
 5.9341   346
 5.9441   263
 5.9541   268
 5.9641   224
 5.9741   204
 5.9841   189
 5.9941   176
 6.0041   149
 6.0141   118
 6.0241   136
 6.0341   110
 6.0441   132
 6.0541   128
 6.0641   115
 6.0741   111
 6.0841   117
 6.0941   142
 6.1041   123
 6.1141   114
 6.1241   122
 6.1341   134
 6.1441   143
 6.1541   150
 6.1641   187
 6.1741   183
 6.1841   209
 6.1941   269
 6.2041   355
 6.2141   479
 6.2241   618
 6.2341   884
 6.2441  1160
 6.2541  1643
 6.2641  2314
 6.2741  3196
 6.2841  4384
 6.2941  5651
 6.3041  7510
 6.3141  9295
 6.3241 11724
 6.3341 14063
 6.3441 16412
 6.3541 18927
 6.3641 20757
 6.3741 22464
 6.3841 23786
 6.3941 24158
 6.4041 24107
 6.4141 23622
 6.4241 22098
 6.4341 20331
 6.4441 18133
 6.4541 15824
 6.4641 13388
 6.4741 10886
 6.4841  8749
 6.4941  6786
 6.5041  5155
 6.5141  3835
 6.5241  2796
 6.5341  2054
 6.5441  1415
 6.5541  1020
 6.5641   660
 6.5741   497
 6.5841   348
 6.5941   287
 6.6041   204
 6.6141   190
 6.6241   166
 6.6341   138
 6.6441   143
 6.6541   123
 6.6641   155
 6.6741   143
 6.6841   136
 6.6941   125
 6.7041   129
 6.7141   140
 6.7241   139
 6.7341   129
 6.7441   141
 6.7541   137
 6.7641   137
 6.7741   142
 6.7841   158
 6.7941   164
 6.8041   179
 6.8141   186
 6.8241   185
 6.8341   202
 6.8441   224
 6.8541   240
 6.8641   250
 6.8741   300
 6.8841   362
 6.8941   431
 6.9041   474
 6.9141   607
 6.9241   710
 6.9341   932
 6.9441  1163
 6.9541  1383
 6.9641  1706
 6.9741  1953
 6.9841  2315
 6.9941  2737
 7.0041  3121
 7.0141  3424
 7.0241  3720
 7.0341  3907
 7.0441  4015
 7.0541  4087
 7.0641  3964
 7.0741  3923
 7.0841  3644
 7.0941  3337
 7.1041  3084
 7.1141  2585
 7.1241  2182
 7.1341  1849
 7.1441  1502
 7.1541  1258
 7.1641   966
 7.1741   777
 7.1841   612
 7.1941   442
 7.2041   365
 7.2141   286
 7.2241   223
 7.2341   195
 7.2441   208
 7.2541   174
 7.2641   170
 7.2741   176
 7.2841   171
 7.2941   177
 7.3041   179
 7.3141   189
 7.3241   178
 7.3341   191
 7.3441   191
 7.3541   210
 7.3641   206
 7.3741   223
 7.3841   237
 7.3941   241
 7.4041   249
 7.4141   264
 7.4241   269
 7.4341   290
 7.4441   282
 7.4541   271
 7.4641   262
 7.4741   250
 7.4841   247
 7.4941   259
 7.5041   225
 7.5141   215
 7.5241   188
 7.5341   180
 7.5441   181
 7.5541   168
 7.5641   190
 7.5741   177
 7.5841   160
 7.5941   174
 7.6041   142
 7.6141   165
 7.6241   152
 7.6341   127
 7.6441   164
 7.6541   138
 7.6641   155
 7.6741   152
 7.6841   167
 7.6941   158
 7.7041   148
 7.7141   166
 7.7241   181
 7.7341   161
 7.7441   181
 7.7541   167
 7.7641   187
 7.7741   184
 7.7841   154
 7.7941   183
 7.8041   188
 7.8141   213
 7.8241   157
 7.8341   196
 7.8441   188
 7.8541   213
 7.8641   231
 7.8741   235
 7.8841   225
 7.8941   254
 7.9041   262
 7.9141   264
 7.9241   248
 7.9341   318
 7.9441   309
 7.9541   332
 7.9641   376
 7.9741   376
 7.9841   420
 7.9941   443
 8.0041   461
 8.0141   512
 8.0241   522
 8.0341   547
 8.0441   627
 8.0541   618
 8.0641   687
 8.0741   742
 8.0841   814
 8.0941   783
 8.1041   831
 8.1141   856
 8.1241   907
 8.1341   953
 8.1441   978
 8.1541   925
 8.1641  1012
 8.1741  1003
 8.1841  1058
 8.1941  1042
 8.2041  1035
 8.2141  1030
 8.2241  1036
 8.2341  1162
 8.2441  1103
 8.2541  1158
 8.2641  1242
 8.2741  1296
 8.2841  1427
 8.2941  1545
 8.3041  1741
 8.3141  1850
 8.3241  1970
 8.3341  2162
 8.3441  2393
 8.3541  2346
 8.3641  2470
 8.3741  2664
 8.3841  2667
 8.3941  2637
 8.4041  2624
 8.4141  2514
 8.4241  2324
 8.4341  2206
 8.4441  2015
 8.4541  1768
 8.4641  1563
 8.4741  1323
 8.4841  1168
 8.4941  1001
 8.5041   796
 8.5141   708
 8.5241   570
 8.5341   510
 8.5441   468
 8.5541   420
 8.5641   344
 8.5741   346
 8.5841   351
 8.5941   345
 8.6041   326
 8.6141   315
 8.6241   353
 8.6341   306
 8.6441   320
 8.6541   292
 8.6641   284
 8.6741   273
 8.6841   291
 8.6941   290
 8.7041   292
 8.7141   267
 8.7241   269
 8.7341   273
 8.7441   240
 8.7541   254
 8.7641   249
 8.7741   229
 8.7841   248
 8.7941   229
 8.8041   215
 8.8141   240
 8.8241   215
 8.8341   229
 8.8441   209
 8.8541   210
 8.8641   245
 8.8741   206
 8.8841   246
 8.8941   248
 8.9041   213
 8.9141   241
 8.9241   228
 8.9341   223
 8.9441   233
 8.9541   238
 8.9641   282
 8.9741   247
 8.9841   262
 8.9941   241
 9.0041   256
 9.0141   273
 9.0241   257
 9.0341   286
 9.0441   328
 9.0541   336
 9.0641   306
 9.0741   326
 9.0841   322
 9.0941   330
 9.1041   340
 9.1141   368
 9.1241   371
 9.1341   393
 9.1441   415
 9.1541   466
 9.1641   419
 9.1741   454
 9.1841   479
 9.1941   510
 9.2041   561
 9.2141   600
 9.2241   542
 9.2341   598
 9.2441   646
 9.2541   677
 9.2641   694
 9.2741   749
 9.2841   748
 9.2941   807
 9.3041   855
 9.3141   857
 9.3241   875
 9.3341   907
 9.3441   902
 9.3541   956
 9.3641   996
 9.3741   937
 9.3841   961
 9.3941   992
 9.4041  1015
 9.4141  1028
 9.4241  1038
 9.4341  1054
 9.4441  1083
 9.4541  1063
 9.4641  1052
 9.4741  1048
 9.4841  1054
 9.4941  1095
 9.5041  1100
 9.5141  1165
 9.5241  1278
 9.5341  1250
 9.5441  1281
 9.5541  1411
 9.5641  1530
 9.5741  1482
 9.5841  1646
 9.5941  1811
 9.6041  1902
 9.6141  2001
 9.6241  2053
 9.6341  2161
 9.6441  2251
 9.6541  2337
 9.6641  2370
 9.6741  2424
 9.6841  2419
 9.6941  2293
 9.7041  2153
 9.7141  2148
 9.7241  1996
 9.7341  1860
 9.7441  1683
 9.7541  1530
 9.7641  1423
 9.7741  1314
 9.7841  1196
 9.7941  1092
 9.8041  1062
 9.8141   995
 9.8241   930
 9.8341   932
 9.8441   885
 9.8541   901
 9.8641   889
 9.8741   870
 9.8841   895
 9.8941   880
 9.9041   907
 9.9141   898
 9.9241   922
 9.9341   893
 9.9441   904
 9.9541   903
 9.9641   889
 9.9741   861
 9.9841   836
 9.9941   827
10.0041   786
10.0141   722
10.0241   666
10.0341   576
10.0441   514
10.0541   465
10.0641   437
10.0741   427
10.0841   383
10.0941   328
10.1041   284
10.1141   268
10.1241   238
10.1341   224
10.1441   209
10.1541   215
10.1641   213
10.1741   211
10.1841   204
10.1941   187
10.2041   181
10.2141   157
10.2241   161
10.2341   164
10.2441   151
10.2541   144
10.2641   134
10.2741   146
10.2841   160
10.2941   125
10.3041   131
10.3141   116
10.3241   124
10.3341   121
10.3441   127
10.3541   153
10.3641   125
10.3741   121
10.3841   119
10.3941   110
10.4041   121
10.4141   120
10.4241   110
10.4341   128
10.4441   146
10.4541   143
10.4641   123
10.4741   124
10.4841   121
10.4941   134
10.5041   134
10.5141   127
10.5241   136
10.5341   155
10.5441   161
10.5541   136
10.5641   140
10.5741   142
10.5841   128
10.5941   139
10.6041   148
10.6141   147
10.6241   128
10.6341   146
10.6441   151
10.6541   146
10.6641   163
10.6741   159
10.6841   144
10.6941   146
10.7041   152
10.7141   168
10.7241   171
10.7341   191
10.7441   180
10.7541   186
10.7641   175
10.7741   168
10.7841   177
10.7941   186
10.8041   192
10.8141   218
10.8241   205
10.8341   208
10.8441   219
10.8541   207
10.8641   198
10.8741   198
10.8841   214
10.8941   207
10.9041   228
10.9141   230
10.9241   219
10.9341   205
10.9441   219
10.9541   213
10.9641   210
10.9741   202
10.9841   214
10.9941   209
11.0041   205
11.0141   210
11.0241   197
11.0341   184
11.0441   182
11.0541   198
11.0641   192
11.0741   180
11.0841   191
11.0941   198
11.1041   184
11.1141   182
11.1241   182
11.1341   206
11.1441   201
11.1541   208
11.1641   202
11.1741   246
11.1841   242
11.1941   256
11.2041   263
11.2141   264
11.2241   299
11.2341   306
11.2441   317
11.2541   329
11.2641   314
11.2741   332
11.2841   335
11.2941   345
11.3041   355
11.3141   326
11.3241   310
11.3341   306
11.3441   288
11.3541   261
11.3641   238
11.3741   249
11.3841   248
11.3941   228
11.4041   208
11.4141   189
11.4241   186
11.4341   188
11.4441   181
11.4541   164
11.4641   167
11.4741   159
11.4841   152
11.4941   165
11.5041   161
11.5141   157
11.5241   137
11.5341   151
11.5441   145
11.5541   153
11.5641   159
11.5741   163
11.5841   163
11.5941   165
11.6041   157
11.6141   147
11.6241   145
11.6341   144
11.6441   156
11.6541   151
11.6641   163
11.6741   150
11.6841   149
11.6941   150
11.7041   144
11.7141   138
11.7241   136
11.7341   134
11.7441   130
11.7541   128
11.7641   123
11.7741   125
11.7841   124
11.7941   107
11.8041   116
11.8141   119
11.8241   128
11.8341   112
11.8441   100
11.8541   112
11.8641   106
11.8741   117
11.8841   122
11.8941   119
11.9041   120
11.9141   118
11.9241   105
11.9341   106
11.9441    99
11.9541   113
11.9641   113
11.9741   104
11.9841   103
11.9941   117
12.0041   122
12.0141   119
12.0241   112
12.0341   102
12.0441   108
12.0541   108
12.0641   102
12.0741   107
12.0841   104
12.0941   103
12.1041   104
12.1141   100
12.1241   114
12.1341   102
12.1441   106
12.1541   108
12.1641   104
12.1741   105
12.1841   100
12.1941   108
12.2041   118
12.2141   105
12.2241   103
12.2341   112
12.2441   112
12.2541   107
12.2641    97
12.2741   105
12.2841    98
12.2941   100
12.3041   102
12.3141   104
12.3241   121
12.3341   110
12.3441   110
12.3541   120
12.3641   121
12.3741   121
12.3841   115
12.3941   116
12.4041   120
12.4141   117
12.4241   126
12.4341   128
12.4441   124
12.4541   117
12.4641   120
12.4741   114
12.4841   110
12.4941   119
12.5041   115
12.5141   108
12.5241   114
12.5341   113
12.5441   108
12.5541   123
12.5641   132
12.5741   132
12.5841   129
12.5941   130
12.6041   124
12.6141   112
12.6241   116
12.6341   123
12.6441   120
12.6541   119
12.6641   121
12.6741   123
12.6841   121
12.6941   116
12.7041   121
12.7141   128
12.7241   129
12.7341   128
12.7441   121
12.7541   114
12.7641   118
12.7741   123
12.7841   124
12.7941   122
12.8041   119
12.8141   120
12.8241   125
12.8341   131
12.8441   133
12.8541   127
12.8641   124
12.8741   129
12.8841   130
12.8941   127
12.9041   123
12.9141   120
12.9241   118
12.9341   119
12.9441   119
12.9541   119
12.9641   127
12.9741   135
12.9841   124
12.9941   123
13.0041   135
13.0141   145
13.0241   133
13.0341   123
13.0441   124
13.0541   131
13.0641   133
13.0741   121
13.0841   114
13.0941   126
13.1041   133
13.1141   129
13.1241   144
13.1341   145
13.1441   133
13.1541   137
13.1641   148
13.1741   140
13.1841   138
13.1941   133
13.2041   136
13.2141   151
13.2241   153
13.2341   154
13.2441   166
13.2541   162
13.2641   167
13.2741   169
13.2841   177
13.2941   187
13.3041   177
13.3141   178
13.3241   177
13.3341   179
13.3441   192
13.3541   195
13.3641   188
13.3741   183
13.3841   186
13.3941   193
13.4041   200
13.4141   202
13.4241   189
13.4341   177
13.4441   180
13.4541   187
13.4641   188
13.4741   186
13.4841   177
13.4941   166
13.5041   160
13.5141   160
13.5241   159
13.5341   160
13.5441   163
13.5541   167
13.5641   169
13.5741   164
13.5841   155
13.5941   148
13.6041   148
13.6141   151
13.6241   154
13.6341   165
13.6441   154
13.6541   149
13.6641   154
13.6741   147
13.6841   149
13.6941   149
13.7041   155
13.7141   145
13.7241   135
13.7341   143
13.7441   141
13.7541   138
13.7641   141
13.7741   147
13.7841   148
13.7941   157
13.8041   152
13.8141   145
13.8241   159
13.8341   169
13.8441   165
13.8541   170
13.8641   176
13.8741   166
13.8841   171
13.8941   180
13.9041   185
13.9141   188
13.9241   189
13.9341   195
13.9441   208
13.9541   226
13.9641   241
13.9741   253
13.9841   263
13.9941   276
14.0041   290
14.0141   308
14.0241   332
14.0341   362
14.0441   393
14.0541   427
14.0641   469
14.0741   503
14.0841   515
14.0941   524
14.1041   538
14.1141   550
14.1241   559
14.1341   566
14.1441   567
14.1541   559
14.1641   543
14.1741   531
14.1841   529
14.1941   528
14.2041   496
14.2141   461
14.2241   434
14.2341   404
14.2441   395
14.2541   366
14.2641   323
14.2741   327
14.2841   316
14.2941   265
14.3041   246
14.3141   243
14.3241   242
14.3341   233
14.3441   221
14.3541   209
14.3641   193
14.3741   179
14.3841   172
14.3941   175
14.4041   184
14.4141   179
14.4241   174
14.4341   183
14.4441   165
14.4541   160
14.4641   174
14.4741   179
14.4841   181
14.4941   179
14.5041   183
14.5141   177
14.5241   174
14.5341   187
14.5441   170
14.5541   162
14.5641   167
14.5741   183
14.5841   195
14.5941   194
14.6041   190
14.6141   195
14.6241   173
14.6341   169
14.6441   185
14.6541   194
14.6641   208
14.6741   203
14.6841   195
14.6941   181
14.7041   182
14.7141   189
14.7241   169
14.7341   173
14.7441   189
14.7541   192
14.7641   210
14.7741   215
14.7841   198
14.7941   196
14.8041   202
14.8141   202
14.8241   204
14.8341   202
14.8441   205
14.8541   207
14.8641   213
14.8741   203
14.8841   202
14.8941   224
14.9041   237
14.9141   224
14.9241   212
14.9341   229
14.9441   221
14.9541   215
14.9641   211
14.9741   217
14.9841   216
14.9941   202
15.0041   210
15.0141   196
15.0241   209
15.0341   205
15.0441   196
15.0541   213
15.0641   200
15.0741   208
15.0841   215
15.0941   213
15.1041   213
15.1141   186
15.1241   187
15.1341   201
15.1441   196
15.1541   189
15.1641   200
15.1741   215
15.1841   201
15.1941   197
15.2041   201
15.2141   193
15.2241   190
15.2341   192
15.2441   205
15.2541   219
15.2641   199
15.2741   179
15.2841   196
15.2941   199
15.3041   202
15.3141   209
15.3241   201
15.3341   194
15.3441   197
15.3541   189
15.3641   204
15.3741   215
15.3841   206
15.3941   211
15.4041   203
15.4141   206
15.4241   203
15.4341   216
15.4441   231
15.4541   220
15.4641   208
15.4741   219
15.4841   231
15.4941   227
15.5041   237
15.5141   224
15.5241   221
15.5341   224
15.5441   224
15.5541   219
15.5641   221
15.5741   236
15.5841   258
15.5941   264
15.6041   252
15.6141   292
15.6241   291
15.6341   298
15.6441   303
15.6541   309
15.6641   329
15.6741   334
15.6841   355
15.6941   361
15.7041   366
15.7141   376
15.7241   390
15.7341   398
15.7441   396
15.7541   418
15.7641   400
15.7741   397
15.7841   401
15.7941   406
15.8041   414
15.8141   409
15.8241   396
15.8341   389
15.8441   397
15.8541   392
15.8641   352
15.8741   354
15.8841   372
15.8941   353
15.9041   318
15.9141   323
15.9241   305
15.9341   287
15.9441   268
15.9541   259
15.9641   248
15.9741   229
15.9841   251
15.9941   262
16.0041   280
16.0141   292
16.0241   263
16.0341   238
16.0441   244
16.0541   232
16.0641   236
16.0741   252
16.0841   236
16.0941   241
16.1041   248
16.1141   253
16.1241   256
16.1341   252
16.1441   252
16.1541   239
16.1641   242
16.1741   249
16.1841   264
16.1941   253
16.2041   250
16.2141   255
16.2241   246
16.2341   233
16.2441   263
16.2541   262
16.2641   244
16.2741   234
16.2841   245
16.2941   245
16.3041   244
16.3141   243
16.3241   243
16.3341   244
16.3441   250
16.3541   254
16.3641   253
16.3741   274
16.3841   260
16.3941   252
16.4041   264
16.4141   262
16.4241   246
16.4341   241
16.4441   270
16.4541   272
16.4641   264
16.4741   278
16.4841   287
16.4941   269
16.5041   276
16.5141   254
16.5241   275
16.5341   265
16.5441   273
16.5541   267
16.5641   279
16.5741   281
16.5841   291
16.5941   272
16.6041   275
16.6141   275
16.6241   271
16.6341   274
16.6441   255
16.6541   267
16.6641   274
16.6741   266
16.6841   261
16.6941   277
16.7041   271
16.7141   263
16.7241   286
16.7341   281
16.7441   294
16.7541   269
16.7641   265
16.7741   281
16.7841   283
16.7941   285
16.8041   287
16.8141   271
16.8241   257
16.8341   291
16.8441   296
16.8541   282
16.8641   264
16.8741   273
16.8841   266
16.8941   289
16.9041   289
16.9141   284
16.9241   272
16.9341   273
16.9441   297
16.9541   288
16.9641   269
16.9741   264
16.9841   288
16.9941   298
17.0041   274
17.0141   291
17.0241   301
17.0341   282
17.0441   269
17.0541   251
17.0641   261
17.0741   287
17.0841   290
17.0941   288
17.1041   298
17.1141   316
17.1241   294
17.1341   272
17.1441   284
17.1541   300
17.1641   308
17.1741   296
17.1841   287
17.1941   281
17.2041   287
17.2141   291
17.2241   283
17.2341   282
17.2441   294
17.2541   282
17.2641   287
17.2741   292
17.2841   307
17.2941   304
17.3041   276
17.3141   285
17.3241   305
17.3341   321
17.3441   323
17.3541   297
17.3641   307
17.3741   312
17.3841   312
17.3941   318
17.4041   295
17.4141   296
17.4241   312
17.4341   313
17.4441   314
17.4541   288
17.4641   303
17.4741   316
17.4841   306
17.4941   305
17.5041   317
17.5141   297
17.5241   325
17.5341   331
17.5441   328
17.5541   328
17.5641   318
17.5741   317
17.5841   314
17.5941   338
17.6041   344
17.6141   345
17.6241   351
17.6341   304
17.6441   301
17.6541   327
17.6641   320
17.6741   356
17.6841   338
17.6941   325
17.7041   313
17.7141   327
17.7241   341
17.7341   333
17.7441   328
17.7541   335
17.7641   319
17.7741   329
17.7841   323
17.7941   351
17.8041   301
17.8141   316
17.8241   304
17.8341   311
17.8441   321
17.8541   347
17.8641   338
17.8741   306
17.8841   306
17.8941   340
17.9041   323
17.9141   317
17.9241   331
17.9341   336
17.9441   331
17.9541   313
17.9641   306
17.9741   303
17.9841   309
17.9941   312
18.0041   305
18.0141   321
18.0241   323
18.0341   337
18.0441   322
18.0541   316
18.0641   331
18.0741   332
18.0841   327
18.0941   327
18.1041   327
18.1141   358
18.1241   358
18.1341   350
18.1441   301
18.1541   316
18.1641   310
18.1741   334
18.1841   331
18.1941   352
18.2041   348
18.2141   330
18.2241   341
18.2341   343
18.2441   332
18.2541   334
18.2641   337
18.2741   366
18.2841   336
18.2941   323
18.3041   333
18.3141   334
18.3241   336
18.3341   340
18.3441   349
18.3541   356
18.3641   342
18.3741   344
18.3841   333
18.3941   343
18.4041   335
18.4141   331
18.4241   337
18.4341   302
18.4441   339
18.4541   341
18.4641   323
18.4741   328
18.4841   346
18.4941   334
18.5041   339
18.5141   340
18.5241   343
18.5341   351
18.5441   361
18.5541   354
18.5641   346
18.5741   365
18.5841   353
18.5941   346
18.6041   373
18.6141   339
18.6241   343
18.6341   349
18.6441   381
18.6541   357
18.6641   342
18.6741   342
18.6841   316
18.6941   323
18.7041   332
18.7141   358
18.7241   355
18.7341   373
18.7441   372
18.7541   369
18.7641   351
18.7741   367
18.7841   382
18.7941   357
18.8041   354
18.8141   368
18.8241   357
18.8341   351
18.8441   361
18.8541   367
18.8641   352
18.8741   365
18.8841   342
18.8941   339
18.9041   353
18.9141   340
18.9241   350
18.9341   363
18.9441   373
18.9541   354
18.9641   373
18.9741   353
18.9841   366
18.9941   365
19.0041   362
19.0141   369
19.0241   370
19.0341   341
19.0441   323
19.0541   335
19.0641   354
19.0741   361
19.0841   370
19.0941   342
19.1041   349
19.1141   361
19.1241   378
19.1341   373
19.1441   361
19.1541   365
19.1641   376
19.1741   362
19.1841   370
19.1941   379
19.2041   394
19.2141   382
19.2241   370
19.2341   379
19.2441   366
19.2541   385
19.2641   393
19.2741   389
19.2841   353
19.2941   355
19.3041   377
19.3141   396
19.3241   345
19.3341   388
19.3441   378
19.3541   364
19.3641   390
19.3741   375
19.3841   382
19.3941   376
19.4041   359
19.4141   354
19.4241   377
19.4341   360
19.4441   364
19.4541   379
19.4641   372
19.4741   362
19.4841   377
19.4941   385
19.5041   362
19.5141   361
19.5241   357
19.5341   380
19.5441   359
19.5541   368
19.5641   369
19.5741   373
19.5841   380
19.5941   366
19.6041   393
19.6141   407
19.6241   402
19.6341   393
19.6441   371
19.6541   388
19.6641   416
19.6741   379
19.6841   334
19.6941   385
19.7041   373
19.7141   392
19.7241   366
19.7341   366
19.7441   365
19.7541   368
19.7641   390
19.7741   398
19.7841   395
19.7941   368
19.8041   383
19.8141   389
19.8241   392
19.8341   400
19.8441   364
19.8541   384
19.8641   414
19.8741   418
19.8841   440
19.8941   404
19.9041   357
19.9141   348
19.9241   368
19.9341   387
19.9441   404
19.9541   375
19.9641   389
19.9741   373
19.9841   384
19.9941   397
20.0041   415
20.0141   394
20.0241   411
20.0341   411
20.0441   385
20.0541   377
20.0641   407
20.0741   392
20.0841   400
20.0941   383
20.1041   361
20.1141   365
20.1241   393
20.1341   376
20.1441   407
20.1541   370
20.1641   393
20.1741   422
20.1841   416
20.1941   390
20.2041   356
20.2141   388
20.2241   413
20.2341   373
20.2441   380
20.2541   372
20.2641   372
20.2741   413
20.2841   425
20.2941   383
20.3041   396
20.3141   416
20.3241   403
20.3341   431
20.3441   425
20.3541   391
20.3641   393
20.3741   403
20.3841   388
20.3941   372
20.4041   411
20.4141   407
20.4241   403
20.4341   392
20.4441   390
20.4541   390
20.4641   403
20.4741   393
20.4841   426
20.4941   401
20.5041   384
20.5141   411
20.5241   381
20.5341   408
20.5441   391
20.5541   406
20.5641   372
20.5741   393
20.5841   374
20.5941   408
20.6041   428
20.6141   385
20.6241   393
20.6341   382
20.6441   414
20.6541   401
20.6641   392
20.6741   433
20.6841   409
20.6941   434
20.7041   406
20.7141   407
20.7241   412
20.7341   402
20.7441   390
20.7541   403
20.7641   433
20.7741   383
20.7841   441
20.7941   410
20.8041   396
20.8141   433
20.8241   428
20.8341   430
20.8441   439
20.8541   450
20.8641   447
20.8741   437
20.8841   466
20.8941   472
20.9041   454
20.9141   442
20.9241   486
20.9341   473
20.9441   461
20.9541   518
20.9641   544
20.9741   565
20.9841   505
20.9941   577
21.0041   586
21.0141   535
21.0241   589
21.0341   588
21.0441   598
21.0541   609
21.0641   592
21.0741   657
21.0841   608
21.0941   637
21.1041   605
21.1141   621
21.1241   622
21.1341   632
21.1441   612
21.1541   591
21.1641   635
21.1741   635
21.1841   624
21.1941   608
21.2041   584
21.2141   588
21.2241   573
21.2341   574
21.2441   579
21.2541   544
21.2641   501
21.2741   494
21.2841   485
21.2941   520
21.3041   475
21.3141   478
21.3241   454
21.3341   431
21.3441   456
21.3541   460
21.3641   476
21.3741   452
21.3841   457
21.3941   451
21.4041   433
21.4141   419
21.4241   412
21.4341   397
21.4441   418
21.4541   435
21.4641   386
21.4741   441
21.4841   391
21.4941   432
21.5041   444
21.5141   388
21.5241   395
21.5341   427
21.5441   414
21.5541   421
21.5641   389
21.5741   423
21.5841   411
21.5941   433
21.6041   410
21.6141   417
21.6241   402
21.6341   432
21.6441   420
21.6541   425
21.6641   425
21.6741   425
21.6841   419
21.6941   447
21.7041   419
21.7141   419
21.7241   403
21.7341   395
21.7441   415
21.7541   419
21.7641   415
21.7741   429
21.7841   422
21.7941   413
21.8041   390
21.8141   427
21.8241   423
21.8341   390
21.8441   422
21.8541   404
21.8641   395
21.8741   394
21.8841   432
21.8941   405
21.9041   414
21.9141   466
21.9241   409
21.9341   442
21.9441   423
21.9541   436
21.9641   417
21.9741   466
21.9841   419
21.9941   410
22.0041   418
22.0141   416
22.0241   403
22.0341   444
22.0441   404
22.0541   422
22.0641   436
22.0741   432
22.0841   432
22.0941   392
22.1041   393
22.1141   428
22.1241   414
22.1341   404
22.1441   437
22.1541   412
22.1641   395
22.1741   398
22.1841   430
22.1941   358
22.2041   392
22.2141   386
22.2241   391
22.2341   450
22.2441   429
22.2541   419
22.2641   400
22.2741   411
22.2841   375
22.2941   395
22.3041   417
22.3141   411
22.3241   368
22.3341   411
22.3441   403
22.3541   400
22.3641   462
22.3741   415
22.3841   448
22.3941   419
22.4041   424
22.4141   420
22.4241   413
22.4341   424
22.4441   425
22.4541   435
22.4641   397
22.4741   403
22.4841   444
22.4941   395
22.5041   400
22.5141   406
22.5241   415
22.5341   427
22.5441   418
22.5541   427
22.5641   381
22.5741   440
22.5841   449
22.5941   430
22.6041   397
22.6141   424
22.6241   398
22.6341   401
22.6441   399
22.6541   391
22.6641   412
22.6741   413
22.6841   434
22.6941   424
22.7041   458
22.7141   400
22.7241   422
22.7341   432
22.7441   416
22.7541   394
22.7641   429
22.7741   373
22.7841   410
22.7941   407
22.8041   401
22.8141   455
22.8241   434
22.8341   377
22.8441   407
22.8541   397
22.8641   414
22.8741   394
22.8841   408
22.8941   391
22.9041   391
22.9141   390
22.9241   413
22.9341   408
22.9441   437
22.9541   441
22.9641   413
22.9741   432
22.9841   434
22.9941   391
23.0041   380
23.0141   419
23.0241   390
23.0341   392
23.0441   394
23.0541   419
23.0641   418
23.0741   399
23.0841   434
23.0941   414
23.1041   424
23.1141   378
23.1241   391
23.1341   411
23.1441   392
23.1541   429
23.1641   418
23.1741   410
23.1841   424
23.1941   399
23.2041   406
23.2141   408
23.2241   382
23.2341   426
23.2441   425
23.2541   392
23.2641   344
23.2741   429
23.2841   423
23.2941   357
23.3041   411
23.3141   423
23.3241   398
23.3341   413
23.3441   405
23.3541   440
23.3641   356
23.3741   379
23.3841   407
23.3941   406
23.4041   396
23.4141   385
23.4241   393
23.4341   415
23.4441   436
23.4541   404
23.4641   378
23.4741   397
23.4841   410
23.4941   421
23.5041   390
23.5141   387
23.5241   393
23.5341   415
23.5441   398
23.5541   405
23.5641   417
23.5741   417
23.5841   434
23.5941   388
23.6041   394
23.6141   379
23.6241   374
23.6341   407
23.6441   394
23.6541   429
23.6641   391
23.6741   382
23.6841   423
23.6941   421
23.7041   404
23.7141   484
23.7241   434
23.7341   430
23.7441   432
23.7541   433
23.7641   454
23.7741   429
23.7841   436
23.7941   444
23.8041   450
23.8141   442
23.8241   417
23.8341   415
23.8441   478
23.8541   454
23.8641   438
23.8741   411
23.8841   417
23.8941   428
23.9041   401
23.9141   451
23.9241   411
23.9341   401
23.9441   436
23.9541   426
23.9641   430
23.9741   392
23.9841   429
23.9941   386
24.0041   378
24.0141   391
24.0241   381
24.0341   396
24.0441   368
24.0541   411
24.0641   362
24.0741   378
24.0841   393
24.0941   364
24.1041   391
24.1141   391
24.1241   412
24.1341   370
24.1441   404
24.1541   398
24.1641   436
24.1741   403
24.1841   398
24.1941   378
24.2041   372
24.2141   383
24.2241   401
24.2341   397
24.2441   388
24.2541   397
24.2641   419
24.2741   378
24.2841   375
24.2941   386
24.3041   393
24.3141   385
24.3241   382
24.3341   379
24.3441   379
24.3541   372
24.3641   378
24.3741   403
24.3841   406
24.3941   383
24.4041   389
24.4141   371
24.4241   378
24.4341   390
24.4441   388
24.4541   403
24.4641   392
24.4741   390
24.4841   411
24.4941   393
24.5041   394
24.5141   409
24.5241   379
24.5341   383
24.5441   394
24.5541   408
24.5641   380
24.5741   424
24.5841   401
24.5941   381
24.6041   394
24.6141   385
24.6241   368
24.6341   398
24.6441   390
24.6541   423
24.6641   402
24.6741   340
24.6841   361
24.6941   378
24.7041   370
24.7141   380
24.7241   376
24.7341   391
24.7441   383
24.7541   364
24.7641   377
24.7741   373
24.7841   393
24.7941   368
24.8041   378
24.8141   365
24.8241   378
24.8341   401
24.8441   369
24.8541   340
24.8641   391
24.8741   364
24.8841   408
24.8941   362
24.9041   384
24.9141   365
24.9241   395
24.9341   363
24.9441   367
24.9541   355
24.9641   365
24.9741   382
24.9841   379
24.9941   402
25.0041   391
25.0141   389
25.0241   378
25.0341   392
25.0441   379
25.0541   367
25.0641   396
25.0741   395
25.0841   346
25.0941   367
25.1041   388
25.1141   392
25.1241   371
25.1341   400
25.1441   398
25.1541   399
25.1641   389
25.1741   392
25.1841   348
25.1941   420
25.2041   383
25.2141   383
25.2241   387
25.2341   376
25.2441   402
25.2541   366
25.2641   338
25.2741   361
25.2841   393
25.2941   355
25.3041   390
25.3141   354
25.3241   349
25.3341   407
25.3441   359
25.3541   387
25.3641   391
25.3741   356
25.3841   340
25.3941   363
25.4041   383
25.4141   339
25.4241   380
25.4341   386
25.4441   368
25.4541   348
25.4641   355
25.4741   390
25.4841   358
25.4941   359
25.5041   381
25.5141   373
25.5241   374
25.5341   368
25.5441   337
25.5541   338
25.5641   316
25.5741   344
25.5841   342
25.5941   358
25.6041   350
25.6141   372
25.6241   355
25.6341   326
25.6441   346
25.6541   366
25.6641   367
25.6741   348
25.6841   349
25.6941   338
25.7041   340
25.7141   349
25.7241   357
25.7341   357
25.7441   365
25.7541   364
25.7641   334
25.7741   350
25.7841   341
25.7941   398
25.8041   344
25.8141   320
25.8241   352
25.8341   336
25.8441   317
25.8541   370
25.8641   327
25.8741   353
25.8841   349
25.8941   365
25.9041   358
25.9141   338
25.9241   365
25.9341   341
25.9441   338
25.9541   299
25.9641   350
25.9741   342
25.9841   330
25.9941   312
26.0041   339
26.0141   334
26.0241   347
26.0341   357
26.0441   352
26.0541   333
26.0641   336
26.0741   332
26.0841   343
26.0941   349
26.1041   344
26.1141   332
26.1241   343
26.1341   319
26.1441   348
26.1541   345
26.1641   353
26.1741   334
26.1841   368
26.1941   342
26.2041   333
26.2141   328
26.2241   359
26.2341   359
26.2441   337
26.2541   322
26.2641   339
26.2741   346
26.2841   337
26.2941   319
26.3041   344
26.3141   321
26.3241   315
26.3341   340
26.3441   349
26.3541   340
26.3641   362
26.3741   358
26.3841   331
26.3941   371
26.4041   353
26.4141   347
26.4241   342
26.4341   334
26.4441   330
26.4541   380
26.4641   339
26.4741   326
26.4841   335
26.4941   315
26.5041   320
26.5141   345
26.5241   315
26.5341   303
26.5441   325
26.5541   340
26.5641   333
26.5741   321
26.5841   334
26.5941   327
26.6041   329
26.6141   293
26.6241   332
26.6341   342
26.6441   327
26.6541   325
26.6641   355
26.6741   345
26.6841   335
26.6941   323
26.7041   328
26.7141   305
26.7241   319
26.7341   304
26.7441   310
26.7541   300
26.7641   323
26.7741   319
26.7841   326
26.7941   298
26.8041   285
26.8141   289
26.8241   333
26.8341   304
26.8441   338
26.8541   312
26.8641   314
26.8741   334
26.8841   326
26.8941   317
26.9041   303
26.9141   321
26.9241   332
26.9341   300
26.9441   312
26.9541   311
26.9641   269
26.9741   277
26.9841   314
26.9941   296
27.0041   309
27.0141   307
27.0241   322
27.0341   320
27.0441   303
27.0541   290
27.0641   328
27.0741   350
27.0841   305
27.0941   302
27.1041   310
27.1141   283
27.1241   273
27.1341   318
27.1441   318
27.1541   305
27.1641   292
27.1741   317
27.1841   307
27.1941   285
27.2041   329
27.2141   274
27.2241   337
27.2341   325
27.2441   285
27.2541   307
27.2641   296
27.2741   289
27.2841   274
27.2941   300
27.3041   298
27.3141   308
27.3241   307
27.3341   288
27.3441   280
27.3541   313
27.3641   309
27.3741   306
27.3841   278
27.3941   306
27.4041   341
27.4141   304
27.4241   317
27.4341   323
27.4441   282
27.4541   282
27.4641   321
27.4741   306
27.4841   289
27.4941   320
27.5041   306
27.5141   306
27.5241   300
27.5341   304
27.5441   323
27.5541   308
27.5641   319
27.5741   281
27.5841   286
27.5941   291
27.6041   299
27.6141   305
27.6241   294
27.6341   289
27.6441   292
27.6541   312
27.6641   289
27.6741   313
27.6841   291
27.6941   293
27.7041   307
27.7141   286
27.7241   262
27.7341   281
27.7441   267
27.7541   285
27.7641   313
27.7741   306
27.7841   311
27.7941   298
27.8041   287
27.8141   292
27.8241   270
27.8341   272
27.8441   296
27.8541   297
27.8641   300
27.8741   294
27.8841   307
27.8941   283
27.9041   280
27.9141   267
27.9241   313
27.9341   305
27.9441   302
27.9541   271
27.9641   287
27.9741   255
27.9841   289
27.9941   269
28.0041   231
28.0141   267
28.0241   260
28.0341   266
28.0441   288
28.0541   282
28.0641   306
28.0741   253
28.0841   281
28.0941   258
28.1041   249
28.1141   263
28.1241   310
28.1341   280
28.1441   272
28.1541   288
28.1641   272
28.1741   255
28.1841   306
28.1941   284
28.2041   273
28.2141   264
28.2241   265
28.2341   281
28.2441   271
28.2541   264
28.2641   243
28.2741   258
28.2841   258
28.2941   291
28.3041   262
28.3141   281
28.3241   272
28.3341   271
28.3441   277
28.3541   269
28.3641   275
28.3741   281
28.3841   292
28.3941   248
28.4041   268
28.4141   268
28.4241   306
28.4341   267
28.4441   279
28.4541   281
28.4641   267
28.4741   285
28.4841   263
28.4941   268
28.5041   230
28.5141   285
28.5241   271
28.5341   275
28.5441   261
28.5541   298
28.5641   274
28.5741   258
28.5841   246
28.5941   257
28.6041   261
28.6141   247
28.6241   264
28.6341   248
28.6441   271
28.6541   239
28.6641   250
28.6741   245
28.6841   237
28.6941   251
28.7041   276
28.7141   271
28.7241   278
28.7341   262
28.7441   260
28.7541   274
28.7641   272
28.7741   263
28.7841   242
28.7941   252
28.8041   251
28.8141   250
28.8241   275
28.8341   242
28.8441   275
28.8541   238
28.8641   243
28.8741   235
28.8841   258
28.8941   267
28.9041   251
28.9141   242
28.9241   252
28.9341   258
28.9441   248
28.9541   260
28.9641   226
28.9741   276
28.9841   231
28.9941   251
29.0041   238
29.0141   240
29.0241   272
29.0341   247
29.0441   246
29.0541   296
29.0641   243
29.0741   248
29.0841   259
29.0941   261
29.1041   225
29.1141   249
29.1241   225
29.1341   246
29.1441   277
29.1541   250
29.1641   258
29.1741   264
29.1841   230
29.1941   239
29.2041   238
29.2141   234
29.2241   241
29.2341   235
29.2441   221
29.2541   249
29.2641   259
29.2741   253
29.2841   237
29.2941   243
29.3041   237
29.3141   220
29.3241   222
29.3341   222
29.3441   229
29.3541   215
29.3641   243
29.3741   219
29.3841   241
29.3941   250
29.4041   250
29.4141   235
29.4241   246
29.4341   267
29.4441   233
29.4541   218
29.4641   273
29.4741   243
29.4841   219
29.4941   245
29.5041   224
29.5141   245
29.5241   250
29.5341   239
29.5441   222
29.5541   248
29.5641   242
29.5741   247
29.5841   235
29.5941   211
29.6041   230
29.6141   240
29.6241   239
29.6341   247
29.6441   261
29.6541   253
29.6641   253
29.6741   212
29.6841   196
29.6941   188
29.7041   210
29.7141   239
29.7241   232
29.7341   231
29.7441   252
29.7541   228
29.7641   210
29.7741   229
29.7841   217
29.7941   236
29.8041   223
29.8141   219
29.8241   211
29.8341   218
29.8441   205
29.8541   190
29.8641   208
29.8741   229
29.8841   233
29.8941   234
29.9041   230
29.9141   225
29.9241   221
29.9341   201
29.9441   205
29.9541   204
29.9641   201
29.9741   230
29.9841   221
29.9941   216
30.0041   224
30.0141   239
30.0241   227
30.0341   216
30.0441   208
30.0541   211
30.0641   217
30.0741   250
30.0841   227
30.0941   227
30.1041   218
30.1141   208
30.1241   215
30.1341   209
30.1441   211
30.1541   213
30.1641   209
30.1741   216
30.1841   218
30.1941   221
30.2041   219
30.2141   237
30.2241   216
30.2341   197
30.2441   202
30.2541   208
30.2641   180
30.2741   198
30.2841   232
30.2941   208
30.3041   227
30.3141   240
30.3241   210
30.3341   214
30.3441   238
30.3541   209
30.3641   211
30.3741   203
30.3841   215
30.3941   213
30.4041   191
30.4141   192
30.4241   202
30.4341   180
30.4441   195
30.4541   227
30.4641   191
30.4741   193
30.4841   223
30.4941   208
30.5041   196
30.5141   185
30.5241   199
30.5341   181
30.5441   194
30.5541   193
30.5641   213
30.5741   215
30.5841   190
30.5941   202
30.6041   200
30.6141   208
30.6241   177
30.6341   174
30.6441   185
30.6541   220
30.6641   220
30.6741   213
30.6841   228
30.6941   214
30.7041   199
30.7141   168
30.7241   171
30.7341   226
30.7441   215
30.7541   222
30.7641   214
30.7741   202
30.7841   192
30.7941   196
30.8041   204
30.8141   189
30.8241   207
30.8341   205
30.8441   187
30.8541   189
30.8641   225
30.8741   216
30.8841   208
30.8941   211
30.9041   197
30.9141   202
30.9241   190
30.9341   179
30.9441   192
30.9541   209
30.9641   182
30.9741   202
30.9841   195
30.9941   190
31.0041   216
31.0141   191
31.0241   207
31.0341   199
31.0441   211
31.0541   197
31.0641   180
31.0741   199
31.0841   188
31.0941   182
31.1041   175
31.1141   215
31.1241   214
31.1341   208
31.1441   219
31.1541   170
31.1641   195
31.1741   177
31.1841   162
31.1941   172
31.2041   177
31.2141   201
31.2241   206
31.2341   208
31.2441   193
31.2541   166
31.2641   156
31.2741   180
31.2841   181
31.2941   193
31.3041   163
31.3141   175
31.3241   176
31.3341   200
31.3441   172
31.3541   190
31.3641   172
31.3741   167
31.3841   188
31.3941   190
31.4041   173
31.4141   183
31.4241   202
31.4341   178
31.4441   151
31.4541   183
31.4641   175
31.4741   197
31.4841   170
31.4941   161
31.5041   165
31.5141   172
31.5241   186
31.5341   180
31.5441   175
31.5541   181
31.5641   172
31.5741   183
31.5841   195
31.5941   190
31.6041   186
31.6141   178
31.6241   187
31.6341   185
31.6441   176
31.6541   165
31.6641   182
31.6741   173
31.6841   175
31.6941   197
31.7041   208
31.7141   163
31.7241   177
31.7341   182
31.7441   186
31.7541   156
31.7641   199
31.7741   170
31.7841   183
31.7941   166
31.8041   187
31.8141   147
31.8241   172
31.8341   169
31.8441   165
31.8541   175
31.8641   168
31.8741   152
31.8841   170
31.8941   162
31.9041   184
31.9141   170
31.9241   179
31.9341   166
31.9441   169
31.9541   170
31.9641   167
31.9741   182
31.9841   168
31.9941   171
32.0041   174
32.0141   171
32.0241   168
32.0341   145
32.0441   166
32.0541   169
32.0641   176
32.0741   163
32.0841   188
32.0941   182
32.1041   176
32.1141   174
32.1241   172
32.1341   154
32.1441   168
32.1541   164
32.1641   173
32.1741   178
32.1841   176
32.1941   189
32.2041   183
32.2141   197
32.2241   188
32.2341   168
32.2441   182
32.2541   157
32.2641   167
32.2741   162
32.2841   161
32.2941   165
32.3041   175
32.3141   173
32.3241   172
32.3341   162
32.3441   172
32.3541   172
32.3641   144
32.3741   173
32.3841   170
32.3941   147
32.4041   128
32.4141   143
32.4241   152
32.4341   146
32.4441   154
32.4541   152
32.4641   162
32.4741   152
32.4841   156
32.4941   131
32.5041   163
32.5141   182
32.5241   168
32.5341   122
32.5441   132
32.5541   126
32.5641   158
32.5741   127
32.5841   153
32.5941   127
32.6041   148
32.6141   136
32.6241   128
32.6341   156
32.6441   163
32.6541   155
32.6641   159
32.6741   163
32.6841   134
32.6941   152
32.7041   164
32.7141   133
32.7241   139
32.7341   137
32.7441   154
32.7541   127
32.7641   134
32.7741   165
32.7841   151
32.7941   137
32.8041   142
32.8141   154
32.8241   129
32.8341   166
32.8441   148
32.8541   147
32.8641   137
32.8741   142
32.8841   127
32.8941   158
32.9041   136
32.9141   133
32.9241   132
32.9341   142
32.9441   135
32.9541   139
32.9641   143
32.9741   122
32.9841   128
32.9941   136
33.0041   128
33.0141   132
33.0241   129
33.0341   143
33.0441   131
33.0541   118
33.0641   141
33.0741   150
33.0841   152
33.0941   148
33.1041   132
33.1141   130
33.1241   135
33.1341   126
33.1441   127
33.1541   142
33.1641   124
33.1741   107
33.1841   146
33.1941   131
33.2041   128
33.2141   133
33.2241   116
33.2341   146
33.2441   131
33.2541   133
33.2641   114
33.2741   125
33.2841   118
33.2941   120
33.3041   122
33.3141   127
33.3241   119
33.3341   131
33.3441   136
33.3541   130
33.3641   124
33.3741   141
33.3841   142
33.3941   125
33.4041   149
33.4141   127
33.4241   120
33.4341   154
33.4441   124
33.4541   118
33.4641   116
33.4741   115
33.4841   134
33.4941   111
33.5041   114
33.5141   102
33.5241   114
33.5341   111
33.5441   120
33.5541   134
33.5641   115
33.5741   117
33.5841   121
33.5941   126
33.6041   119
33.6141   113
33.6241   120
33.6341   144
33.6441   125
33.6541   109
33.6641   116
33.6741   109
33.6841   114
33.6941   127
33.7041   138
33.7141   108
33.7241   130
33.7341   120
33.7441   126
33.7541   120
33.7641   124
33.7741   124
33.7841   119
33.7941   103
33.8041   129
33.8141   101
33.8241   121
33.8341   127
33.8441   114
33.8541   130
33.8641   137
33.8741   116
33.8841   119
33.8941   106
33.9041    99
33.9141   107
33.9241   129
33.9341   105
33.9441   102
33.9541   127
33.9641   122
33.9741   111
33.9841   121
33.9941   106
34.0041   102
34.0141   115
34.0241   128
34.0341   128
34.0441   106
34.0541   113
34.0641   104
34.0741   103
34.0841   103
34.0941   107
34.1041    97
34.1141   113
34.1241   112
34.1341   100
34.1441   116
34.1541   106
34.1641   109
34.1741   109
34.1841   102
34.1941    96
34.2041   104
34.2141   112
34.2241   112
34.2341    93
34.2441   113
34.2541    94
34.2641   116
34.2741   132
34.2841   118
34.2941   103
34.3041   101
34.3141   112
34.3241   118
34.3341    97
34.3441   105
34.3541   123
34.3641    96
34.3741    99
34.3841   112
34.3941   112
34.4041   127
34.4141    84
34.4241   100
34.4341    91
34.4441   113
34.4541   105
34.4641    89
34.4741    98
34.4841   107
34.4941   112
34.5041   111
34.5141   102
34.5241   121
34.5341   101
34.5441   113
34.5541    96
34.5641   102
34.5741   109
34.5841   106
34.5941    97
34.6041   100
34.6141   104
34.6241    98
34.6341   104
34.6441    95
34.6541   110
34.6641   106
34.6741    97
34.6841   103
34.6941   103
34.7041   110
34.7141   116
34.7241   112
34.7341    83
34.7441    95
34.7541    80
34.7641    78
34.7741    95
34.7841   101
34.7941   100
34.8041   113
34.8141    99
34.8241    93
34.8341   111
34.8441   102
34.8541   117
34.8641   102
34.8741    90
34.8841    86
34.8941    88
34.9041   102
34.9141   116
34.9241    91
34.9341   102
34.9441    84
34.9541    99
34.9641    97
34.9741    88
34.9841    91
34.9941   101
35.0041   109
35.0141    95
35.0241    91
35.0341    76
35.0441   101
35.0541   100
35.0641   100
35.0741    92
35.0841   101
35.0941    95
35.1041    81
35.1141    99
35.1241    82
35.1341    92
35.1441    97
35.1541    80
35.1641    84
35.1741   101
35.1841    88
35.1941    73
35.2041    88
35.2141    88
35.2241    88
35.2341    89
35.2441    74
35.2541    77
35.2641    87
35.2741    84
35.2841    85
35.2941    99
35.3041    91
35.3141   106
35.3241    90
35.3341   100
35.3441    94
35.3541    95
35.3641    96
35.3741    85
35.3841    96
35.3941    84
35.4041    85
35.4141    86
35.4241    91
35.4341    74
35.4441    95
35.4541    94
35.4641    96
35.4741    86
35.4841    80
35.4941    75
35.5041    87
35.5141    89
35.5241    57
35.5341    91
35.5441    79
35.5541    70
35.5641    83
35.5741    71
35.5841    82
35.5941    87
35.6041    82
35.6141    76
35.6241    87
35.6341    85
35.6441    65
35.6541    89
35.6641    96
35.6741    82
35.6841    85
35.6941    96
35.7041    83
35.7141    74
35.7241    92
35.7341    84
35.7441    90
35.7541    80
35.7641    65
35.7741    81
35.7841    80
35.7941    69
35.8041    82
35.8141    72
35.8241    64
35.8341    83
35.8441    70
35.8541    86
35.8641    77
35.8741    81
35.8841    83
35.8941    83
35.9041    71
35.9141    73
35.9241    67
35.9341    70
35.9441    68
35.9541    66
35.9641    73
35.9741    76
35.9841    79
35.9941    80
36.0041    85
36.0141    70
36.0241    76
36.0341    79
36.0441    69
36.0541    90
36.0641    68
36.0741    77
36.0841    80
36.0941    82
36.1041    74
36.1141    76
36.1241    80
36.1341    77
36.1441    80
36.1541    77
36.1641    81
36.1741    85
36.1841    88
36.1941    81
36.2041    81
36.2141    81
36.2241    84
36.2341    63
36.2441    71
36.2541    78
36.2641    73
36.2741    68
36.2841    68
36.2941    78
36.3041    81
36.3141    81
36.3241    66
36.3341    75
36.3441    86
36.3541    78
36.3641    78
36.3741    75
36.3841    83
36.3941    79
36.4041    67
36.4141    69
36.4241    67
36.4341    80
36.4441    66
36.4541    81
36.4641    68
36.4741    78
36.4841    77
36.4941    83
36.5041    70
36.5141    68
36.5241    68
36.5341    62
36.5441    67
36.5541    73
36.5641    58
36.5741    60
36.5841    75
36.5941    67
36.6041    63
36.6141    65
36.6241    80
36.6341    61
36.6441    81
36.6541    73
36.6641    74
36.6741    52
36.6841    59
36.6941    76
36.7041    63
36.7141    73
36.7241    62
36.7341    72
36.7441    77
36.7541    62
36.7641    65
36.7741    57
36.7841    71
36.7941    71
36.8041    68
36.8141    58
36.8241    57
36.8341    70
36.8441    59
36.8541    67
36.8641    71
36.8741    63
36.8841    49
36.8941    73
36.9041    71
36.9141    60
36.9241    64
36.9341    57
36.9441    61
36.9541    63
36.9641    64
36.9741    73
36.9841    65
36.9941    60
37.0041    59
37.0141    69
37.0241    61
37.0341    72
37.0441    70
37.0541    64
37.0641    56
37.0741    58
37.0841    54
37.0941    59
37.1041    64
37.1141    59
37.1241    62
37.1341    48
37.1441    71
37.1541    68
37.1641    60
37.1741    70
37.1841    46
37.1941    58
37.2041    56
37.2141    62
37.2241    74
37.2341    59
37.2441    44
37.2541    54
37.2641    60
37.2741    64
37.2841    58
37.2941    64
37.3041    67
37.3141    57
37.3241    44
37.3341    63
37.3441    44
37.3541    66
37.3641    60
37.3741    58
37.3841    60
37.3941    58
37.4041    58
37.4141    49
37.4241    55
37.4341    56
37.4441    57
37.4541    63
37.4641    70
37.4741    57
37.4841    52
37.4941    58
37.5041    54
37.5141    41
37.5241    68
37.5341    53
37.5441    51
37.5541    49
37.5641    58
37.5741    59
37.5841    59
37.5941    48
37.6041    39
37.6141    40
37.6241    63
37.6341    43
37.6441    67
37.6541    51
37.6641    48
37.6741    45
37.6841    58
37.6941    51
37.7041    57
37.7141    46
37.7241    49
37.7341    53
37.7441    55
37.7541    48
37.7641    47
37.7741    50
37.7841    44
37.7941    55
37.8041    51
37.8141    42
37.8241    37
37.8341    45
37.8441    36
37.8541    58
37.8641    45
37.8741    47
37.8841    46
37.8941    40
37.9041    40
37.9141    42
37.9241    39
37.9341    53
37.9441    41
37.9541    47
37.9641    51
37.9741    37
37.9841    44
37.9941    32
38.0041    38
38.0141    40
38.0241    47
38.0341    48
38.0441    50
38.0541    54
38.0641    43
38.0741    46
38.0841    53
38.0941    42
38.1041    48
38.1141    45
38.1241    46
38.1341    25
38.1441    51
38.1541    46
38.1641    44
38.1741    48
38.1841    42
38.1941    44
38.2041    30
38.2141    41
38.2241    42
38.2341    40
38.2441    47
38.2541    42
38.2641    34
38.2741    45
38.2841    48
38.2941    61
38.3041    40
38.3141    35
38.3241    42
38.3341    30
38.3441    45
38.3541    41
38.3641    48
38.3741    44
38.3841    59
38.3941    33
38.4041    39
38.4141    42
38.4241    46
38.4341    36
38.4441    35
38.4541    36
38.4641    40
38.4741    34
38.4841    38
38.4941    45
38.5041    42
38.5141    41
38.5241    41
38.5341    42
38.5441    45
38.5541    36
38.5641    42
38.5741    44
38.5841    37
38.5941    39
38.6041    42
38.6141    45
38.6241    34
38.6341    37
38.6441    45
38.6541    44
38.6641    39
38.6741    56
38.6841    43
38.6941    27
38.7041    36
38.7141    36
38.7241    44
38.7341    29
38.7441    32
38.7541    35
38.7641    35
38.7741    28
38.7841    36
38.7941    33
38.8041    34
38.8141    36
38.8241    37
38.8341    43
38.8441    45
38.8541    37
38.8641    29
38.8741    44
38.8841    34
38.8941    28
38.9041    40
38.9141    38
38.9241    38
38.9341    27
38.9441    35
38.9541    46
38.9641    40
38.9741    33
38.9841    37
38.9941    39
39.0041    31
39.0141    29
39.0241    48
39.0341    34
39.0441    28
39.0541    29
39.0641    38
39.0741    30
39.0841    34
39.0941    32
39.1041    35
39.1141    33
39.1241    35
39.1341    22
39.1441    33
39.1541    24
39.1641    36
39.1741    32
39.1841    26
39.1941    35
39.2041    26
39.2141    28
39.2241    34
39.2341    34
39.2441    32
39.2541    42
39.2641    37
39.2741    39
39.2841    34
39.2941    32
39.3041    29
39.3141    40
39.3241    30
39.3341    28
39.3441    35
39.3541    26
39.3641    29
39.3741    24
39.3841    42
39.3941    32
39.4041    35
39.4141    33
39.4241    38
39.4341    28
39.4441    32
39.4541    29
39.4641    24
39.4741    38
39.4841    28
39.4941    33
39.5041    21
39.5141    27
39.5241    30
39.5341    27
39.5441    33
39.5541    35
39.5641    21
39.5741    32
39.5841    35
39.5941    23
39.6041    34
39.6141    26
39.6241    17
39.6341    27
39.6441    20
39.6541    29
39.6641    20
39.6741    38
39.6841    25
39.6941    25
39.7041    30
39.7141    35
39.7241    27
39.7341    29
39.7441    40
39.7541    29
39.7641    23
39.7741    19
39.7841    26
39.7941    22
39.8041    25
39.8141    27
39.8241    27
39.8341    20
39.8441    18
39.8541    26
39.8641    28
39.8741    30
39.8841    25
39.8941    31
39.9041    20
39.9141    28
39.9241    21
39.9341    18
39.9441    26
39.9541    14
39.9641    19
39.9741    25
39.9841    24
