Bruker Nano GmbH Berlin, Germany
Esprit 1.9

Date: 4/1/2021 4:15:02 PM
Real time: 23100
Life time: 21677
Pulse density: 89728


Detector type: XFlash 430
Window type: Custom type
Detector thickness: 0.45
Si dead layer:0.029

Calibration, lin.: 10
Calibration, abs.: -955.9
Mn FWHM: 137.05
Fano factor: 0.121
Channels: 4095

Energy Counts
-0.9559     0
-0.9459     0
-0.9359     0
-0.9259     0
-0.9159     0
-0.9059     0
-0.8959     0
-0.8859     0
-0.8759     0
-0.8659     0
-0.8559     0
-0.8459     0
-0.8359     0
-0.8259     0
-0.8159     0
-0.8059     0
-0.7959     0
-0.7859     0
-0.7759     0
-0.7659     0
-0.7559     0
-0.7459     0
-0.7359     0
-0.7259     0
-0.7159     0
-0.7059     0
-0.6959     0
-0.6859     0
-0.6759     0
-0.6659     0
-0.6559     0
-0.6459     0
-0.6359     0
-0.6259     0
-0.6159     0
-0.6059     0
-0.5959     0
-0.5859     0
-0.5759     0
-0.5659     0
-0.5559     0
-0.5459     0
-0.5359     0
-0.5259     0
-0.5159     0
-0.5059     0
-0.4959     0
-0.4859     0
-0.4759     0
-0.4659     0
-0.4559     0
-0.4459     0
-0.4359     0
-0.4259     0
-0.4159     0
-0.4059     0
-0.3959     0
-0.3859     0
-0.3759     0
-0.3659     0
-0.3559     0
-0.3459     0
-0.3359     0
-0.3259     0
-0.3159     0
-0.3059     0
-0.2959     0
-0.2859     0
-0.2759     0
-0.2659     0
-0.2559     0
-0.2459     0
-0.2359     0
-0.2259     0
-0.2159     0
-0.2059     0
-0.1959     0
-0.1859     0
-0.1759     0
-0.1659     0
-0.1559     1
-0.1459     0
-0.1359     0
-0.1259     0
-0.1159     0
-0.1059     9
-0.0959    64
-0.0859   227
-0.0759   844
-0.0659  2520
-0.0559  6539
-0.0459 13535
-0.0359 25892
-0.0259 41415
-0.0159 56410
-0.0059 66212
 0.0041 66625
 0.0141 57777
 0.0241 42687
 0.0341 26853
 0.0441 14570
 0.0541  6691
 0.0641  2679
 0.0741   967
 0.0841   270
 0.0941    92
 0.1041    22
 0.1141     8
 0.1241    10
 0.1341    12
 0.1441     6
 0.1541     3
 0.1641     2
 0.1741    27
 0.1841   195
 0.1941   383
 0.2041   334
 0.2141   366
 0.2241   367
 0.2341   338
 0.2441   368
 0.2541   346
 0.2641   365
 0.2741   335
 0.2841   351
 0.2941   354
 0.3041   332
 0.3141   356
 0.3241   346
 0.3341   349
 0.3441   317
 0.3541   314
 0.3641   337
 0.3741   327
 0.3841   310
 0.3941   290
 0.4041   300
 0.4141   291
 0.4241   300
 0.4341   298
 0.4441   319
 0.4541   286
 0.4641   290
 0.4741   311
 0.4841   298
 0.4941   295
 0.5041   295
 0.5141   302
 0.5241   306
 0.5341   306
 0.5441   291
 0.5541   284
 0.5641   295
 0.5741   289
 0.5841   255
 0.5941   274
 0.6041   289
 0.6141   282
 0.6241   273
 0.6341   265
 0.6441   269
 0.6541   276
 0.6641   288
 0.6741   281
 0.6841   259
 0.6941   266
 0.7041   262
 0.7141   242
 0.7241   250
 0.7341   249
 0.7441   246
 0.7541   269
 0.7641   269
 0.7741   246
 0.7841   233
 0.7941   243
 0.8041   248
 0.8141   262
 0.8241   269
 0.8341   251
 0.8441   230
 0.8541   220
 0.8641   245
 0.8741   256
 0.8841   260
 0.8941   233
 0.9041   222
 0.9141   225
 0.9241   238
 0.9341   233
 0.9441   243
 0.9541   229
 0.9641   236
 0.9741   238
 0.9841   219
 0.9941   212
 1.0041   219
 1.0141   221
 1.0241   232
 1.0341   219
 1.0441   226
 1.0541   220
 1.0641   209
 1.0741   209
 1.0841   222
 1.0941   227
 1.1041   219
 1.1141   232
 1.1241   212
 1.1341   214
 1.1441   218
 1.1541   210
 1.1641   212
 1.1741   230
 1.1841   201
 1.1941   216
 1.2041   221
 1.2141   222
 1.2241   215
 1.2341   199
 1.2441   196
 1.2541   218
 1.2641   197
 1.2741   208
 1.2841   216
 1.2941   217
 1.3041   191
 1.3141   188
 1.3241   202
 1.3341   204
 1.3441   203
 1.3541   205
 1.3641   204
 1.3741   207
 1.3841   209
 1.3941   191
 1.4041   210
 1.4141   225
 1.4241   195
 1.4341   211
 1.4441   197
 1.4541   186
 1.4641   176
 1.4741   214
 1.4841   204
 1.4941   185
 1.5041   179
 1.5141   176
 1.5241   199
 1.5341   221
 1.5441   227
 1.5541   213
 1.5641   218
 1.5741   205
 1.5841   189
 1.5941   169
 1.6041   190
 1.6141   192
 1.6241   191
 1.6341   194
 1.6441   213
 1.6541   240
 1.6641   283
 1.6741   348
 1.6841   414
 1.6941   512
 1.7041   625
 1.7141   742
 1.7241   807
 1.7341   822
 1.7441   843
 1.7541   785
 1.7641   756
 1.7741   608
 1.7841   522
 1.7941   432
 1.8041   351
 1.8141   340
 1.8241   308
 1.8341   284
 1.8441   257
 1.8541   240
 1.8641   216
 1.8741   205
 1.8841   218
 1.8941   234
 1.9041   195
 1.9141   227
 1.9241   214
 1.9341   194
 1.9441   177
 1.9541   209
 1.9641   235
 1.9741   235
 1.9841   249
 1.9941   241
 2.0041   243
 2.0141   241
 2.0241   241
 2.0341   217
 2.0441   238
 2.0541   211
 2.0641   195
 2.0741   223
 2.0841   191
 2.0941   189
 2.1041   182
 2.1141   185
 2.1241   188
 2.1341   214
 2.1441   177
 2.1541   199
 2.1641   199
 2.1741   176
 2.1841   177
 2.1941   185
 2.2041   181
 2.2141   169
 2.2241   163
 2.2341   171
 2.2441   183
 2.2541   181
 2.2641   205
 2.2741   186
 2.2841   183
 2.2941   165
 2.3041   144
 2.3141   163
 2.3241   170
 2.3341   177
 2.3441   165
 2.3541   157
 2.3641   168
 2.3741   156
 2.3841   172
 2.3941   161
 2.4041   158
 2.4141   188
 2.4241   156
 2.4341   167
 2.4441   167
 2.4541   167
 2.4641   152
 2.4741   149
 2.4841   180
 2.4941   169
 2.5041   158
 2.5141   140
 2.5241   154
 2.5341   192
 2.5441   144
 2.5541   175
 2.5641   156
 2.5741   157
 2.5841   168
 2.5941   168
 2.6041   153
 2.6141   173
 2.6241   153
 2.6341   145
 2.6441   150
 2.6541   162
 2.6641   144
 2.6741   132
 2.6841   149
 2.6941   136
 2.7041   143
 2.7141   154
 2.7241   141
 2.7341   159
 2.7441   146
 2.7541   139
 2.7641   164
 2.7741   165
 2.7841   170
 2.7941   152
 2.8041   174
 2.8141   172
 2.8241   160
 2.8341   170
 2.8441   159
 2.8541   163
 2.8641   167
 2.8741   163
 2.8841   157
 2.8941   164
 2.9041   142
 2.9141   152
 2.9241   147
 2.9341   157
 2.9441   130
 2.9541   151
 2.9641   135
 2.9741   145
 2.9841   151
 2.9941   123
 3.0041   149
 3.0141   136
 3.0241   131
 3.0341   129
 3.0441   145
 3.0541   120
 3.0641   142
 3.0741   159
 3.0841   145
 3.0941   162
 3.1041   143
 3.1141   129
 3.1241   125
 3.1341   146
 3.1441   121
 3.1541   131
 3.1641   131
 3.1741   151
 3.1841   146
 3.1941   147
 3.2041   131
 3.2141   191
 3.2241   184
 3.2341   227
 3.2441   258
 3.2541   297
 3.2641   354
 3.2741   372
 3.2841   430
 3.2941   461
 3.3041   479
 3.3141   516
 3.3241   450
 3.3341   425
 3.3441   412
 3.3541   337
 3.3641   303
 3.3741   250
 3.3841   247
 3.3941   201
 3.4041   166
 3.4141   140
 3.4241   139
 3.4341   128
 3.4441   124
 3.4541   111
 3.4641   123
 3.4741   125
 3.4841   117
 3.4941   145
 3.5041   123
 3.5141   135
 3.5241   153
 3.5341   169
 3.5441   181
 3.5541   218
 3.5641   255
 3.5741   274
 3.5841   306
 3.5941   375
 3.6041   456
 3.6141   583
 3.6241   683
 3.6341   804
 3.6441   976
 3.6541  1064
 3.6641  1289
 3.6741  1317
 3.6841  1373
 3.6941  1419
 3.7041  1317
 3.7141  1223
 3.7241  1091
 3.7341   958
 3.7441   811
 3.7541   654
 3.7641   486
 3.7741   343
 3.7841   300
 3.7941   219
 3.8041   200
 3.8141   150
 3.8241   130
 3.8341   145
 3.8441   119
 3.8541   107
 3.8641   103
 3.8741   110
 3.8841   133
 3.8941   109
 3.9041   120
 3.9141   117
 3.9241   143
 3.9341   162
 3.9441   164
 3.9541   186
 3.9641   199
 3.9741   200
 3.9841   251
 3.9941   253
 4.0041   304
 4.0141   269
 4.0241   266
 4.0341   246
 4.0441   222
 4.0541   213
 4.0641   201
 4.0741   185
 4.0841   148
 4.0941   133
 4.1041   141
 4.1141   125
 4.1241   114
 4.1341    93
 4.1441    90
 4.1541   107
 4.1641    88
 4.1741    92
 4.1841   115
 4.1941    94
 4.2041   101
 4.2141    85
 4.2241    83
 4.2341   100
 4.2441   105
 4.2541    94
 4.2641    83
 4.2741    85
 4.2841    91
 4.2941    96
 4.3041    82
 4.3141    76
 4.3241   104
 4.3341    85
 4.3441    80
 4.3541    99
 4.3641   102
 4.3741   121
 4.3841   116
 4.3941   130
 4.4041   164
 4.4141   195
 4.4241   206
 4.4341   233
 4.4441   276
 4.4541   308
 4.4641   315
 4.4741   331
 4.4841   355
 4.4941   380
 4.5041   372
 4.5141   379
 4.5241   373
 4.5341   343
 4.5441   302
 4.5541   284
 4.5641   261
 4.5741   197
 4.5841   187
 4.5941   174
 4.6041   145
 4.6141   139
 4.6241   122
 4.6341   132
 4.6441   106
 4.6541   104
 4.6641    98
 4.6741   146
 4.6841   112
 4.6941    83
 4.7041    94
 4.7141   103
 4.7241   112
 4.7341   114
 4.7441   120
 4.7541   133
 4.7641   122
 4.7741   138
 4.7841   117
 4.7941   135
 4.8041   151
 4.8141   154
 4.8241   175
 4.8341   166
 4.8441   153
 4.8541   129
 4.8641   161
 4.8741   173
 4.8841   182
 4.8941   175
 4.9041   182
 4.9141   184
 4.9241   172
 4.9341   161
 4.9441   159
 4.9541   150
 4.9641   128
 4.9741   153
 4.9841   140
 4.9941   132
 5.0041   108
 5.0141   128
 5.0241   135
 5.0341   134
 5.0441   113
 5.0541   119
 5.0641   127
 5.0741   110
 5.0841   114
 5.0941   120
 5.1041   118
 5.1141   114
 5.1241   101
 5.1341   117
 5.1441   111
 5.1541    82
 5.1641   138
 5.1741   123
 5.1841   107
 5.1941   119
 5.2041   125
 5.2141   132
 5.2241   112
 5.2341   120
 5.2441   111
 5.2541   105
 5.2641   113
 5.2741   121
 5.2841    96
 5.2941   114
 5.3041   122
 5.3141   117
 5.3241   151
 5.3341   129
 5.3441   141
 5.3541   153
 5.3641   142
 5.3741   174
 5.3841   148
 5.3941   160
 5.4041   188
 5.4141   159
 5.4241   167
 5.4341   189
 5.4441   163
 5.4541   168
 5.4641   161
 5.4741   141
 5.4841   148
 5.4941   155
 5.5041   160
 5.5141   128
 5.5241   130
 5.5341   145
 5.5441   111
 5.5541   134
 5.5641   118
 5.5741   110
 5.5841   110
 5.5941   107
 5.6041   108
 5.6141   114
 5.6241   122
 5.6341   118
 5.6441    99
 5.6541   116
 5.6641   112
 5.6741   110
 5.6841    96
 5.6941   105
 5.7041   118
 5.7141   115
 5.7241   118
 5.7341   128
 5.7441   142
 5.7541   145
 5.7641   138
 5.7741   133
 5.7841   185
 5.7941   172
 5.8041   190
 5.8141   232
 5.8241   232
 5.8341   230
 5.8441   289
 5.8541   300
 5.8641   332
 5.8741   324
 5.8841   377
 5.8941   404
 5.9041   398
 5.9141   370
 5.9241   313
 5.9341   330
 5.9441   313
 5.9541   285
 5.9641   232
 5.9741   215
 5.9841   222
 5.9941   203
 6.0041   199
 6.0141   164
 6.0241   151
 6.0341   187
 6.0441   154
 6.0541   121
 6.0641   161
 6.0741   173
 6.0841   143
 6.0941   172
 6.1041   149
 6.1141   169
 6.1241   165
 6.1341   182
 6.1441   180
 6.1541   188
 6.1641   209
 6.1741   231
 6.1841   224
 6.1941   267
 6.2041   333
 6.2141   467
 6.2241   576
 6.2341   758
 6.2441  1119
 6.2541  1456
 6.2641  2022
 6.2741  2761
 6.2841  3781
 6.2941  4967
 6.3041  6381
 6.3141  7944
 6.3241 10076
 6.3341 12049
 6.3441 14124
 6.3541 15951
 6.3641 17539
 6.3741 19001
 6.3841 20255
 6.3941 20508
 6.4041 20289
 6.4141 19872
 6.4241 18390
 6.4341 17077
 6.4441 15072
 6.4541 13329
 6.4641 11242
 6.4741  9247
 6.4841  7434
 6.4941  5661
 6.5041  4384
 6.5141  3277
 6.5241  2336
 6.5341  1817
 6.5441  1221
 6.5541   846
 6.5641   557
 6.5741   457
 6.5841   371
 6.5941   290
 6.6041   249
 6.6141   196
 6.6241   179
 6.6341   195
 6.6441   202
 6.6541   178
 6.6641   184
 6.6741   164
 6.6841   181
 6.6941   162
 6.7041   180
 6.7141   146
 6.7241   203
 6.7341   169
 6.7441   186
 6.7541   192
 6.7641   197
 6.7741   187
 6.7841   181
 6.7941   182
 6.8041   214
 6.8141   198
 6.8241   196
 6.8341   184
 6.8441   244
 6.8541   238
 6.8641   269
 6.8741   311
 6.8841   287
 6.8941   422
 6.9041   457
 6.9141   593
 6.9241   650
 6.9341   796
 6.9441   999
 6.9541  1226
 6.9641  1495
 6.9741  1697
 6.9841  2071
 6.9941  2272
 7.0041  2542
 7.0141  2836
 7.0241  3069
 7.0341  3283
 7.0441  3259
 7.0541  3396
 7.0641  3329
 7.0741  3145
 7.0841  2941
 7.0941  2823
 7.1041  2519
 7.1141  2146
 7.1241  1896
 7.1341  1567
 7.1441  1369
 7.1541  1059
 7.1641   885
 7.1741   653
 7.1841   563
 7.1941   464
 7.2041   398
 7.2141   294
 7.2241   318
 7.2341   301
 7.2441   250
 7.2541   226
 7.2641   201
 7.2741   238
 7.2841   228
 7.2941   227
 7.3041   225
 7.3141   234
 7.3241   256
 7.3341   279
 7.3441   298
 7.3541   271
 7.3641   303
 7.3741   320
 7.3841   324
 7.3941   339
 7.4041   300
 7.4141   333
 7.4241   332
 7.4341   324
 7.4441   349
 7.4541   357
 7.4641   341
 7.4741   330
 7.4841   318
 7.4941   332
 7.5041   272
 7.5141   302
 7.5241   247
 7.5341   257
 7.5441   250
 7.5541   244
 7.5641   234
 7.5741   205
 7.5841   234
 7.5941   225
 7.6041   194
 7.6141   221
 7.6241   238
 7.6341   200
 7.6441   219
 7.6541   243
 7.6641   208
 7.6741   241
 7.6841   221
 7.6941   255
 7.7041   231
 7.7141   243
 7.7241   243
 7.7341   286
 7.7441   267
 7.7541   261
 7.7641   257
 7.7741   304
 7.7841   295
 7.7941   294
 7.8041   297
 7.8141   253
 7.8241   296
 7.8341   311
 7.8441   313
 7.8541   365
 7.8641   367
 7.8741   356
 7.8841   379
 7.8941   376
 7.9041   402
 7.9141   413
 7.9241   445
 7.9341   440
 7.9441   433
 7.9541   501
 7.9641   536
 7.9741   539
 7.9841   558
 7.9941   644
 8.0041   625
 8.0141   690
 8.0241   739
 8.0341   809
 8.0441   842
 8.0541   911
 8.0641   979
 8.0741   958
 8.0841  1100
 8.0941  1185
 8.1041  1251
 8.1141  1264
 8.1241  1344
 8.1341  1357
 8.1441  1471
 8.1541  1454
 8.1641  1507
 8.1741  1533
 8.1841  1558
 8.1941  1613
 8.2041  1524
 8.2141  1691
 8.2241  1740
 8.2341  1692
 8.2441  1755
 8.2541  1798
 8.2641  1899
 8.2741  1945
 8.2841  2159
 8.2941  2284
 8.3041  2514
 8.3141  2681
 8.3241  2804
 8.3341  3090
 8.3441  3218
 8.3541  3435
 8.3641  3421
 8.3741  3558
 8.3841  3519
 8.3941  3679
 8.4041  3556
 8.4141  3378
 8.4241  3249
 8.4341  2969
 8.4441  2609
 8.4541  2324
 8.4641  2151
 8.4741  1858
 8.4841  1564
 8.4941  1326
 8.5041  1104
 8.5141   922
 8.5241   825
 8.5341   701
 8.5441   645
 8.5541   500
 8.5641   511
 8.5741   436
 8.5841   408
 8.5941   408
 8.6041   395
 8.6141   389
 8.6241   383
 8.6341   386
 8.6441   392
 8.6541   390
 8.6641   393
 8.6741   391
 8.6841   375
 8.6941   349
 8.7041   364
 8.7141   385
 8.7241   359
 8.7341   364
 8.7441   363
 8.7541   334
 8.7641   362
 8.7741   390
 8.7841   341
 8.7941   342
 8.8041   351
 8.8141   330
 8.8241   340
 8.8341   328
 8.8441   330
 8.8541   330
 8.8641   343
 8.8741   338
 8.8841   323
 8.8941   331
 8.9041   349
 8.9141   347
 8.9241   340
 8.9341   362
 8.9441   365
 8.9541   358
 8.9641   356
 8.9741   381
 8.9841   408
 8.9941   378
 9.0041   339
 9.0141   390
 9.0241   403
 9.0341   434
 9.0441   422
 9.0541   426
 9.0641   447
 9.0741   433
 9.0841   459
 9.0941   496
 9.1041   494
 9.1141   538
 9.1241   595
 9.1341   543
 9.1441   595
 9.1541   614
 9.1641   631
 9.1741   687
 9.1841   708
 9.1941   781
 9.2041   814
 9.2141   770
 9.2241   865
 9.2341   905
 9.2441   932
 9.2541   980
 9.2641  1031
 9.2741  1074
 9.2841  1159
 9.2941  1166
 9.3041  1223
 9.3141  1241
 9.3241  1320
 9.3341  1364
 9.3441  1334
 9.3541  1402
 9.3641  1356
 9.3741  1429
 9.3841  1509
 9.3941  1473
 9.4041  1568
 9.4141  1557
 9.4241  1528
 9.4341  1594
 9.4441  1651
 9.4541  1691
 9.4641  1706
 9.4741  1633
 9.4841  1682
 9.4941  1702
 9.5041  1818
 9.5141  1796
 9.5241  1851
 9.5341  1896
 9.5441  2019
 9.5541  2072
 9.5641  2244
 9.5741  2410
 9.5841  2548
 9.5941  2666
 9.6041  2852
 9.6141  3013
 9.6241  3085
 9.6341  3301
 9.6441  3420
 9.6541  3567
 9.6641  3497
 9.6741  3520
 9.6841  3478
 9.6941  3435
 9.7041  3217
 9.7141  3057
 9.7241  2985
 9.7341  2851
 9.7441  2597
 9.7541  2494
 9.7641  2353
 9.7741  2215
 9.7841  2073
 9.7941  1942
 9.8041  1851
 9.8141  1703
 9.8241  1653
 9.8341  1561
 9.8441  1544
 9.8541  1609
 9.8641  1602
 9.8741  1615
 9.8841  1573
 9.8941  1669
 9.9041  1691
 9.9141  1660
 9.9241  1702
 9.9341  1715
 9.9441  1659
 9.9541  1637
 9.9641  1685
 9.9741  1623
 9.9841  1576
 9.9941  1500
10.0041  1416
10.0141  1289
10.0241  1153
10.0341  1059
10.0441   984
10.0541   878
10.0641   770
10.0741   705
10.0841   614
10.0941   540
10.1041   513
10.1141   460
10.1241   421
10.1341   404
10.1441   360
10.1541   325
10.1641   306
10.1741   296
10.1841   294
10.1941   283
10.2041   258
10.2141   271
10.2241   253
10.2341   258
10.2441   235
10.2541   246
10.2641   225
10.2741   222
10.2841   208
10.2941   205
10.3041   191
10.3141   214
10.3241   225
10.3341   205
10.3441   185
10.3541   191
10.3641   180
10.3741   194
10.3841   209
10.3941   204
10.4041   200
10.4141   204
10.4241   202
10.4341   192
10.4441   184
10.4541   176
10.4641   195
10.4741   214
10.4841   208
10.4941   223
10.5041   205
10.5141   245
10.5241   229
10.5341   219
10.5441   222
10.5541   209
10.5641   215
10.5741   231
10.5841   213
10.5941   248
10.6041   242
10.6141   237
10.6241   238
10.6341   244
10.6441   239
10.6541   225
10.6641   204
10.6741   232
10.6841   228
10.6941   236
10.7041   249
10.7141   247
10.7241   271
10.7341   266
10.7441   290
10.7541   259
10.7641   261
10.7741   307
10.7841   291
10.7941   306
10.8041   303
10.8141   310
10.8241   313
10.8341   315
10.8441   353
10.8541   338
10.8641   324
10.8741   338
10.8841   345
10.8941   356
10.9041   355
10.9141   366
10.9241   342
10.9341   337
10.9441   342
10.9541   318
10.9641   344
10.9741   347
10.9841   335
10.9941   337
11.0041   346
11.0141   353
11.0241   344
11.0341   324
11.0441   310
11.0541   298
11.0641   307
11.0741   296
11.0841   292
11.0941   313
11.1041   298
11.1141   292
11.1241   316
11.1341   306
11.1441   310
11.1541   348
11.1641   357
11.1741   352
11.1841   360
11.1941   378
11.2041   400
11.2141   426
11.2241   435
11.2341   441
11.2441   423
11.2541   482
11.2641   508
11.2741   492
11.2841   474
11.2941   476
11.3041   492
11.3141   490
11.3241   455
11.3341   414
11.3441   401
11.3541   403
11.3641   412
11.3741   395
11.3841   323
11.3941   301
11.4041   286
11.4141   274
11.4241   290
11.4341   276
11.4441   248
11.4541   265
11.4641   252
11.4741   251
11.4841   249
11.4941   222
11.5041   225
11.5141   249
11.5241   254
11.5341   241
11.5441   251
11.5541   238
11.5641   235
11.5741   248
11.5841   234
11.5941   229
11.6041   231
11.6141   245
11.6241   258
11.6341   257
11.6441   233
11.6541   250
11.6641   243
11.6741   229
11.6841   200
11.6941   196
11.7041   218
11.7141   219
11.7241   219
11.7341   205
11.7441   201
11.7541   208
11.7641   201
11.7741   175
11.7841   189
11.7941   183
11.8041   176
11.8141   181
11.8241   168
11.8341   173
11.8441   191
11.8541   185
11.8641   168
11.8741   177
11.8841   171
11.8941   190
11.9041   181
11.9141   178
11.9241   164
11.9341   174
11.9441   189
11.9541   184
11.9641   178
11.9741   185
11.9841   185
11.9941   182
12.0041   192
12.0141   186
12.0241   187
12.0341   203
12.0441   196
12.0541   196
12.0641   199
12.0741   192
12.0841   210
12.0941   205
12.1041   190
12.1141   196
12.1241   206
12.1341   209
12.1441   200
12.1541   182
12.1641   191
12.1741   194
12.1841   190
12.1941   180
12.2041   181
12.2141   182
12.2241   178
12.2341   184
12.2441   175
12.2541   191
12.2641   197
12.2741   194
12.2841   187
12.2941   167
12.3041   167
12.3141   182
12.3241   169
12.3341   166
12.3441   176
12.3541   179
12.3641   195
12.3741   194
12.3841   192
12.3941   178
12.4041   181
12.4141   186
12.4241   184
12.4341   175
12.4441   170
12.4541   184
12.4641   187
12.4741   185
12.4841   190
12.4941   185
12.5041   190
12.5141   195
12.5241   191
12.5341   183
12.5441   183
12.5541   209
12.5641   230
12.5741   224
12.5841   206
12.5941   195
12.6041   199
12.6141   192
12.6241   195
12.6341   203
12.6441   201
12.6541   205
12.6641   192
12.6741   178
12.6841   183
12.6941   200
12.7041   197
12.7141   203
12.7241   217
12.7341   202
12.7441   195
12.7541   195
12.7641   190
12.7741   190
12.7841   199
12.7941   207
12.8041   204
12.8141   199
12.8241   196
12.8341   197
12.8441   201
12.8541   205
12.8641   204
12.8741   201
12.8841   201
12.8941   203
12.9041   209
12.9141   211
12.9241   205
12.9341   196
12.9441   193
12.9541   201
12.9641   203
12.9741   199
12.9841   207
12.9941   212
13.0041   204
13.0141   217
13.0241   221
13.0341   209
13.0441   208
13.0541   210
13.0641   222
13.0741   220
13.0841   214
13.0941   214
13.1041   210
13.1141   209
13.1241   218
13.1341   228
13.1441   235
13.1541   245
13.1641   252
13.1741   256
13.1841   262
13.1941   273
13.2041   289
13.2141   303
13.2241   315
13.2341   331
13.2441   352
13.2541   371
13.2641   399
13.2741   426
13.2841   447
13.2941   477
13.3041   496
13.3141   498
13.3241   505
13.3341   544
13.3441   551
13.3541   561
13.3641   597
13.3741   595
13.3841   574
13.3941   573
13.4041   584
13.4141   571
13.4241   551
13.4341   524
13.4441   481
13.4541   461
13.4641   470
13.4741   459
13.4841   401
13.4941   365
13.5041   366
13.5141   354
13.5241   335
13.5341   297
13.5441   291
13.5541   298
13.5641   266
13.5741   259
13.5841   266
13.5941   264
13.6041   260
13.6141   243
13.6241   239
13.6341   255
13.6441   262
13.6541   251
13.6641   247
13.6741   248
13.6841   258
13.6941   266
13.7041   263
13.7141   263
13.7241   253
13.7341   243
13.7441   252
13.7541   244
13.7641   233
13.7741   240
13.7841   253
13.7941   254
13.8041   262
13.8141   259
13.8241   249
13.8341   283
13.8441   295
13.8541   282
13.8641   279
13.8741   274
13.8841   298
13.8941   310
13.9041   327
13.9141   355
13.9241   375
13.9341   409
13.9441   425
13.9541   465
13.9641   513
13.9741   572
13.9841   619
13.9941   685
14.0041   791
14.0141   883
14.0241   952
14.0341  1034
14.0441  1160
14.0541  1285
14.0641  1421
14.0741  1511
14.0841  1548
14.0941  1610
14.1041  1721
14.1141  1763
14.1241  1759
14.1341  1795
14.1441  1837
14.1541  1838
14.1641  1786
14.1741  1772
14.1841  1724
14.1941  1615
14.2041  1512
14.2141  1427
14.2241  1332
14.2341  1241
14.2441  1132
14.2541   989
14.2641   892
14.2741   830
14.2841   752
14.2941   671
14.3041   607
14.3141   524
14.3241   490
14.3341   455
14.3441   410
14.3541   378
14.3641   350
14.3741   333
14.3841   308
14.3941   309
14.4041   317
14.4141   309
14.4241   291
14.4341   280
14.4441   286
14.4541   290
14.4641   295
14.4741   272
14.4841   273
14.4941   299
14.5041   299
14.5141   292
14.5241   277
14.5341   257
14.5441   260
14.5541   284
14.5641   294
14.5741   297
14.5841   278
14.5941   269
14.6041   282
14.6141   279
14.6241   273
14.6341   290
14.6441   296
14.6541   299
14.6641   292
14.6741   285
14.6841   286
14.6941   275
14.7041   284
14.7141   288
14.7241   291
14.7341   296
14.7441   285
14.7541   288
14.7641   314
14.7741   311
14.7841   309
14.7941   309
14.8041   330
14.8141   352
14.8241   344
14.8341   368
14.8441   360
14.8541   338
14.8641   355
14.8741   358
14.8841   350
14.8941   345
14.9041   351
14.9141   361
14.9241   376
14.9341   388
14.9441   401
14.9541   383
14.9641   407
14.9741   391
14.9841   367
14.9941   360
15.0041   366
15.0141   386
15.0241   392
15.0341   391
15.0441   363
15.0541   379
15.0641   379
15.0741   337
15.0841   333
15.0941   342
15.1041   334
15.1141   318
15.1241   304
15.1341   291
15.1441   297
15.1541   320
15.1641   331
15.1741   323
15.1841   334
15.1941   338
15.2041   305
15.2141   297
15.2241   327
15.2341   329
15.2441   325
15.2541   338
15.2641   324
15.2741   291
15.2841   300
15.2941   326
15.3041   315
15.3141   301
15.3241   331
15.3341   349
15.3441   342
15.3541   342
15.3641   326
15.3741   332
15.3841   326
15.3941   314
15.4041   295
15.4141   308
15.4241   323
15.4341   341
15.4441   339
15.4541   341
15.4641   347
15.4741   341
15.4841   332
15.4941   347
15.5041   349
15.5141   349
15.5241   354
15.5341   346
15.5441   369
15.5541   404
15.5641   413
15.5741   403
15.5841   403
15.5941   423
15.6041   456
15.6141   465
15.6241   478
15.6341   496
15.6441   535
15.6541   557
15.6641   571
15.6741   585
15.6841   645
15.6941   664
15.7041   675
15.7141   699
15.7241   729
15.7341   757
15.7441   754
15.7541   814
15.7641   804
15.7741   807
15.7841   839
15.7941   829
15.8041   799
15.8141   818
15.8241   811
15.8341   798
15.8441   771
15.8541   734
15.8641   734
15.8741   725
15.8841   693
15.8941   659
15.9041   609
15.9141   593
15.9241   581
15.9341   565
15.9441   520
15.9541   472
15.9641   468
15.9741   467
15.9841   442
15.9941   438
16.0041   424
16.0141   436
16.0241   450
16.0341   442
16.0441   418
16.0541   415
16.0641   414
16.0741   425
16.0841   441
16.0941   438
16.1041   424
16.1141   396
16.1241   396
16.1341   426
16.1441   415
16.1541   401
16.1641   411
16.1741   394
16.1841   389
16.1941   406
16.2041   401
16.2141   374
16.2241   381
16.2341   393
16.2441   371
16.2541   399
16.2641   361
16.2741   372
16.2841   391
16.2941   406
16.3041   380
16.3141   361
16.3241   390
16.3341   372
16.3441   374
16.3541   361
16.3641   376
16.3741   386
16.3841   373
16.3941   391
16.4041   371
16.4141   365
16.4241   369
16.4341   371
16.4441   391
16.4541   396
16.4641   390
16.4741   401
16.4841   403
16.4941   387
16.5041   376
16.5141   392
16.5241   403
16.5341   387
16.5441   407
16.5541   393
16.5641   398
16.5741   379
16.5841   408
16.5941   406
16.6041   415
16.6141   410
16.6241   412
16.6341   388
16.6441   385
16.6541   401
16.6641   423
16.6741   461
16.6841   420
16.6941   399
16.7041   415
16.7141   418
16.7241   427
16.7341   407
16.7441   402
16.7541   408
16.7641   400
16.7741   416
16.7841   410
16.7941   397
16.8041   415
16.8141   424
16.8241   417
16.8341   388
16.8441   405
16.8541   413
16.8641   392
16.8741   409
16.8841   420
16.8941   419
16.9041   398
16.9141   394
16.9241   390
16.9341   395
16.9441   404
16.9541   417
16.9641   417
16.9741   398
16.9841   392
16.9941   402
17.0041   380
17.0141   386
17.0241   420
17.0341   404
17.0441   400
17.0541   410
17.0641   405
17.0741   418
17.0841   428
17.0941   445
17.1041   427
17.1141   423
17.1241   437
17.1341   430
17.1441   446
17.1541   445
17.1641   460
17.1741   436
17.1841   417
17.1941   428
17.2041   430
17.2141   429
17.2241   427
17.2341   427
17.2441   419
17.2541   411
17.2641   428
17.2741   437
17.2841   414
17.2941   421
17.3041   431
17.3141   416
17.3241   428
17.3341   444
17.3441   417
17.3541   438
17.3641   434
17.3741   456
17.3841   454
17.3941   443
17.4041   435
17.4141   465
17.4241   445
17.4341   453
17.4441   468
17.4541   443
17.4641   427
17.4741   454
17.4841   463
17.4941   477
17.5041   463
17.5141   469
17.5241   456
17.5341   441
17.5441   491
17.5541   507
17.5641   524
17.5741   477
17.5841   466
17.5941   472
17.6041   468
17.6141   496
17.6241   480
17.6341   472
17.6441   507
17.6541   467
17.6641   467
17.6741   490
17.6841   485
17.6941   494
17.7041   508
17.7141   493
17.7241   493
17.7341   483
17.7441   501
17.7541   520
17.7641   509
17.7741   491
17.7841   465
17.7941   467
17.8041   490
17.8141   489
17.8241   476
17.8341   480
17.8441   496
17.8541   512
17.8641   497
17.8741   507
17.8841   508
17.8941   484
17.9041   494
17.9141   503
17.9241   487
17.9341   486
17.9441   480
17.9541   477
17.9641   500
17.9741   487
17.9841   491
17.9941   482
18.0041   467
18.0141   492
18.0241   485
18.0341   498
18.0441   513
18.0541   522
18.0641   452
18.0741   480
18.0841   504
18.0941   494
18.1041   481
18.1141   493
18.1241   482
18.1341   487
18.1441   493
18.1541   511
18.1641   505
18.1741   491
18.1841   472
18.1941   495
18.2041   500
18.2141   468
18.2241   497
18.2341   501
18.2441   500
18.2541   513
18.2641   467
18.2741   486
18.2841   484
18.2941   517
18.3041   504
18.3141   520
18.3241   507
18.3341   500
18.3441   522
18.3541   493
18.3641   480
18.3741   523
18.3841   513
18.3941   499
18.4041   522
18.4141   500
18.4241   535
18.4341   522
18.4441   519
18.4541   520
18.4641   540
18.4741   488
18.4841   507
18.4941   521
18.5041   539
18.5141   521
18.5241   519
18.5341   511
18.5441   505
18.5541   519
18.5641   526
18.5741   511
18.5841   511
18.5941   531
18.6041   512
18.6141   523
18.6241   537
18.6341   536
18.6441   522
18.6541   513
18.6641   533
18.6741   528
18.6841   511
18.6941   514
18.7041   502
18.7141   503
18.7241   487
18.7341   538
18.7441   510
18.7541   511
18.7641   499
18.7741   529
18.7841   559
18.7941   547
18.8041   565
18.8141   529
18.8241   516
18.8341   513
18.8441   514
18.8541   545
18.8641   547
18.8741   535
18.8841   537
18.8941   552
18.9041   572
18.9141   572
18.9241   510
18.9341   531
18.9441   546
18.9541   523
18.9641   544
18.9741   566
18.9841   547
18.9941   524
19.0041   516
19.0141   518
19.0241   553
19.0341   539
19.0441   538
19.0541   503
19.0641   515
19.0741   521
19.0841   560
19.0941   539
19.1041   595
19.1141   588
19.1241   570
19.1341   552
19.1441   514
19.1541   561
19.1641   546
19.1741   534
19.1841   553
19.1941   551
19.2041   562
19.2141   555
19.2241   548
19.2341   607
19.2441   600
19.2541   569
19.2641   549
19.2741   562
19.2841   556
19.2941   547
19.3041   574
19.3141   581
19.3241   562
19.3341   527
19.3441   541
19.3541   540
19.3641   529
19.3741   552
19.3841   534
19.3941   566
19.4041   539
19.4141   538
19.4241   538
19.4341   547
19.4441   542
19.4541   571
19.4641   590
19.4741   529
19.4841   578
19.4941   600
19.5041   574
19.5141   564
19.5241   535
19.5341   591
19.5441   591
19.5541   547
19.5641   590
19.5741   576
19.5841   535
19.5941   557
19.6041   576
19.6141   531
19.6241   548
19.6341   585
19.6441   568
19.6541   577
19.6641   543
19.6741   548
19.6841   522
19.6941   584
19.7041   591
19.7141   554
19.7241   542
19.7341   577
19.7441   592
19.7541   602
19.7641   583
19.7741   595
19.7841   590
19.7941   564
19.8041   511
19.8141   594
19.8241   601
19.8341   565
19.8441   544
19.8541   543
19.8641   577
19.8741   553
19.8841   578
19.8941   573
19.9041   574
19.9141   581
19.9241   583
19.9341   578
19.9441   571
19.9541   566
19.9641   573
19.9741   569
19.9841   572
19.9941   567
20.0041   578
20.0141   558
20.0241   561
20.0341   570
20.0441   576
20.0541   571
20.0641   594
20.0741   579
20.0841   584
20.0941   562
20.1041   580
20.1141   607
20.1241   584
20.1341   592
20.1441   586
20.1541   586
20.1641   585
20.1741   572
20.1841   566
20.1941   623
20.2041   575
20.2141   609
20.2241   599
20.2341   584
20.2441   591
20.2541   600
20.2641   572
20.2741   561
20.2841   581
20.2941   599
20.3041   579
20.3141   624
20.3241   630
20.3341   594
20.3441   616
20.3541   591
20.3641   590
20.3741   570
20.3841   574
20.3941   541
20.4041   574
20.4141   573
20.4241   559
20.4341   570
20.4441   579
20.4541   525
20.4641   580
20.4741   611
20.4841   652
20.4941   602
20.5041   621
20.5141   593
20.5241   598
20.5341   616
20.5441   650
20.5541   607
20.5641   584
20.5741   622
20.5841   609
20.5941   612
20.6041   579
20.6141   583
20.6241   615
20.6341   572
20.6441   562
20.6541   562
20.6641   607
20.6741   587
20.6841   579
20.6941   595
20.7041   559
20.7141   610
20.7241   641
20.7341   595
20.7441   592
20.7541   624
20.7641   618
20.7741   600
20.7841   567
20.7941   618
20.8041   609
20.8141   686
20.8241   637
20.8341   638
20.8441   681
20.8541   673
20.8641   665
20.8741   699
20.8841   680
20.8941   667
20.9041   734
20.9141   711
20.9241   664
20.9341   716
20.9441   747
20.9541   735
20.9641   768
20.9741   784
20.9841   787
20.9941   816
21.0041   838
21.0141   857
21.0241   882
21.0341   875
21.0441   860
21.0541   927
21.0641   928
21.0741   923
21.0841   942
21.0941   940
21.1041   977
21.1141   920
21.1241   989
21.1341  1033
21.1441   931
21.1541   931
21.1641   925
21.1741   927
21.1841   902
21.1941   935
21.2041   919
21.2141   894
21.2241   866
21.2341   860
21.2441   810
21.2541   805
21.2641   750
21.2741   818
21.2841   770
21.2941   774
21.3041   703
21.3141   714
21.3241   710
21.3341   687
21.3441   682
21.3541   696
21.3641   630
21.3741   663
21.3841   628
21.3941   651
21.4041   654
21.4141   658
21.4241   627
21.4341   635
21.4441   664
21.4541   582
21.4641   569
21.4741   572
21.4841   600
21.4941   620
21.5041   623
21.5141   620
21.5241   610
21.5341   646
21.5441   606
21.5541   645
21.5641   605
21.5741   607
21.5841   612
21.5941   617
21.6041   615
21.6141   587
21.6241   573
21.6341   615
21.6441   622
21.6541   598
21.6641   632
21.6741   636
21.6841   623
21.6941   630
21.7041   623
21.7141   622
21.7241   639
21.7341   599
21.7441   588
21.7541   599
21.7641   594
21.7741   621
21.7841   615
21.7941   588
21.8041   593
21.8141   583
21.8241   639
21.8341   589
21.8441   586
21.8541   589
21.8641   631
21.8741   646
21.8841   639
21.8941   660
21.9041   595
21.9141   622
21.9241   589
21.9341   668
21.9441   628
21.9541   593
21.9641   612
21.9741   689
21.9841   613
21.9941   617
22.0041   619
22.0141   634
22.0241   625
22.0341   627
22.0441   589
22.0541   631
22.0641   624
22.0741   605
22.0841   609
22.0941   665
22.1041   636
22.1141   660
22.1241   603
22.1341   634
22.1441   576
22.1541   612
22.1641   642
22.1741   633
22.1841   640
22.1941   606
22.2041   629
22.2141   639
22.2241   625
22.2341   608
22.2441   624
22.2541   609
22.2641   566
22.2741   653
22.2841   607
22.2941   655
22.3041   610
22.3141   602
22.3241   621
22.3341   594
22.3441   585
22.3541   604
22.3641   637
22.3741   630
22.3841   649
22.3941   615
22.4041   611
22.4141   615
22.4241   631
22.4341   626
22.4441   654
22.4541   575
22.4641   584
22.4741   636
22.4841   673
22.4941   584
22.5041   602
22.5141   638
22.5241   596
22.5341   636
22.5441   648
22.5541   648
22.5641   596
22.5741   603
22.5841   588
22.5941   644
22.6041   598
22.6141   650
22.6241   590
22.6341   592
22.6441   633
22.6541   648
22.6641   633
22.6741   606
22.6841   598
22.6941   615
22.7041   605
22.7141   578
22.7241   568
22.7341   564
22.7441   607
22.7541   597
22.7641   633
22.7741   586
22.7841   607
22.7941   624
22.8041   610
22.8141   568
22.8241   557
22.8341   564
22.8441   606
22.8541   618
22.8641   624
22.8741   590
22.8841   610
22.8941   644
22.9041   614
22.9141   643
22.9241   605
22.9341   626
22.9441   617
22.9541   648
22.9641   601
22.9741   632
22.9841   616
22.9941   571
23.0041   583
23.0141   608
23.0241   652
23.0341   586
23.0441   597
23.0541   620
23.0641   611
23.0741   641
23.0841   604
23.0941   619
23.1041   631
23.1141   605
23.1241   629
23.1341   597
23.1441   601
23.1541   543
23.1641   628
23.1741   593
23.1841   596
23.1941   584
23.2041   587
23.2141   661
23.2241   588
23.2341   583
23.2441   613
23.2541   593
23.2641   572
23.2741   627
23.2841   591
23.2941   571
23.3041   601
23.3141   598
23.3241   583
23.3341   590
23.3441   598
23.3541   640
23.3641   596
23.3741   627
23.3841   613
23.3941   614
23.4041   646
23.4141   576
23.4241   591
23.4341   604
23.4441   591
23.4541   616
23.4641   613
23.4741   609
23.4841   627
23.4941   580
23.5041   590
23.5141   601
23.5241   588
23.5341   617
23.5441   632
23.5541   599
23.5641   609
23.5741   580
23.5841   614
23.5941   653
23.6041   620
23.6141   588
23.6241   634
23.6341   661
23.6441   648
23.6541   651
23.6641   658
23.6741   639
23.6841   613
23.6941   637
23.7041   623
23.7141   646
23.7241   660
23.7341   634
23.7441   632
23.7541   674
23.7641   625
23.7741   664
23.7841   641
23.7941   676
23.8041   625
23.8141   667
23.8241   663
23.8341   636
23.8441   626
23.8541   629
23.8641   651
23.8741   631
23.8841   630
23.8941   630
23.9041   643
23.9141   642
23.9241   652
23.9341   605
23.9441   605
23.9541   609
23.9641   611
23.9741   567
23.9841   611
23.9941   570
24.0041   570
24.0141   593
24.0241   538
24.0341   590
24.0441   592
24.0541   557
24.0641   562
24.0741   578
24.0841   568
24.0941   564
24.1041   606
24.1141   572
24.1241   626
24.1341   622
24.1441   569
24.1541   624
24.1641   596
24.1741   615
24.1841   583
24.1941   616
24.2041   539
24.2141   583
24.2241   604
24.2341   557
24.2441   572
24.2541   587
24.2641   613
24.2741   586
24.2841   598
24.2941   592
24.3041   552
24.3141   603
24.3241   606
24.3341   568
24.3441   605
24.3541   622
24.3641   562
24.3741   573
24.3841   598
24.3941   608
24.4041   569
24.4141   524
24.4241   556
24.4341   604
24.4441   573
24.4541   559
24.4641   570
24.4741   575
24.4841   560
24.4941   527
24.5041   570
24.5141   561
24.5241   585
24.5341   589
24.5441   597
24.5541   579
24.5641   553
24.5741   569
24.5841   605
24.5941   542
24.6041   572
24.6141   582
24.6241   549
24.6341   565
24.6441   570
24.6541   562
24.6641   556
24.6741   575
24.6841   549
24.6941   545
24.7041   591
24.7141   600
24.7241   574
24.7341   571
24.7441   600
24.7541   556
24.7641   546
24.7741   566
24.7841   575
24.7941   559
24.8041   528
24.8141   565
24.8241   590
24.8341   559
24.8441   575
24.8541   572
24.8641   577
24.8741   562
24.8841   559
24.8941   587
24.9041   560
24.9141   563
24.9241   594
24.9341   536
24.9441   561
24.9541   572
24.9641   566
24.9741   549
24.9841   597
24.9941   580
25.0041   589
25.0141   581
25.0241   571
25.0341   588
25.0441   605
25.0541   555
25.0641   533
25.0741   601
25.0841   572
25.0941   544
25.1041   524
25.1141   573
25.1241   621
25.1341   552
25.1441   579
25.1541   605
25.1641   574
25.1741   555
25.1841   566
25.1941   536
25.2041   539
25.2141   520
25.2241   551
25.2341   519
25.2441   617
25.2541   560
25.2641   562
25.2741   541
25.2841   566
25.2941   555
25.3041   543
25.3141   564
25.3241   527
25.3341   568
25.3441   575
25.3541   558
25.3641   548
25.3741   539
25.3841   553
25.3941   563
25.4041   534
25.4141   553
25.4241   573
25.4341   588
25.4441   543
25.4541   513
25.4641   546
25.4741   569
25.4841   553
25.4941   553
25.5041   532
25.5141   538
25.5241   555
25.5341   558
25.5441   575
25.5541   507
25.5641   506
25.5741   533
25.5841   528
25.5941   543
25.6041   520
25.6141   556
25.6241   561
25.6341   506
25.6441   543
25.6541   511
25.6641   509
25.6741   548
25.6841   537
25.6941   540
25.7041   541
25.7141   522
25.7241   548
25.7341   558
25.7441   510
25.7541   533
25.7641   494
25.7741   532
25.7841   556
25.7941   532
25.8041   493
25.8141   542
25.8241   501
25.8341   549
25.8441   500
25.8541   530
25.8641   558
25.8741   493
25.8841   562
25.8941   518
25.9041   521
25.9141   533
25.9241   542
25.9341   504
25.9441   480
25.9541   532
25.9641   504
25.9741   537
25.9841   510
25.9941   506
26.0041   518
26.0141   519
26.0241   503
26.0341   506
26.0441   495
26.0541   499
26.0641   515
26.0741   484
26.0841   521
26.0941   504
26.1041   533
26.1141   512
26.1241   505
26.1341   507
26.1441   481
26.1541   498
26.1641   507
26.1741   478
26.1841   523
26.1941   528
26.2041   534
26.2141   515
26.2241   526
26.2341   511
26.2441   533
26.2541   504
26.2641   497
26.2741   504
26.2841   471
26.2941   508
26.3041   539
26.3141   535
26.3241   466
26.3341   514
26.3441   518
26.3541   489
26.3641   513
26.3741   492
26.3841   468
26.3941   471
26.4041   446
26.4141   509
26.4241   528
26.4341   508
26.4441   483
26.4541   506
26.4641   503
26.4741   516
26.4841   490
26.4941   478
26.5041   474
26.5141   500
26.5241   521
26.5341   519
26.5441   512
26.5541   491
26.5641   504
26.5741   484
26.5841   480
26.5941   458
26.6041   501
26.6141   453
26.6241   452
26.6341   471
26.6441   509
26.6541   517
26.6641   476
26.6741   474
26.6841   462
26.6941   468
26.7041   491
26.7141   512
26.7241   508
26.7341   483
26.7441   468
26.7541   486
26.7641   479
26.7741   494
26.7841   471
26.7941   478
26.8041   456
26.8141   480
26.8241   534
26.8341   458
26.8441   486
26.8541   482
26.8641   466
26.8741   459
26.8841   474
26.8941   487
26.9041   472
26.9141   472
26.9241   493
26.9341   502
26.9441   496
26.9541   464
26.9641   490
26.9741   487
26.9841   460
26.9941   479
27.0041   464
27.0141   449
27.0241   482
27.0341   452
27.0441   445
27.0541   464
27.0641   463
27.0741   489
27.0841   485
27.0941   473
27.1041   458
27.1141   536
27.1241   505
27.1341   508
27.1441   451
27.1541   472
27.1641   495
27.1741   474
27.1841   466
27.1941   467
27.2041   453
27.2141   494
27.2241   462
27.2341   472
27.2441   429
27.2541   461
27.2641   470
27.2741   458
27.2841   458
27.2941   476
27.3041   442
27.3141   501
27.3241   453
27.3341   450
27.3441   466
27.3541   456
27.3641   450
27.3741   478
27.3841   434
27.3941   479
27.4041   458
27.4141   473
27.4241   450
27.4341   485
27.4441   470
27.4541   453
27.4641   468
27.4741   456
27.4841   478
27.4941   412
27.5041   465
27.5141   494
27.5241   509
27.5341   454
27.5441   466
27.5541   446
27.5641   426
27.5741   479
27.5841   479
27.5941   451
27.6041   427
27.6141   429
27.6241   458
27.6341   453
27.6441   441
27.6541   418
27.6641   453
27.6741   445
27.6841   443
27.6941   431
27.7041   457
27.7141   455
27.7241   446
27.7341   428
27.7441   425
27.7541   451
27.7641   458
27.7741   426
27.7841   425
27.7941   402
27.8041   447
27.8141   438
27.8241   417
27.8341   426
27.8441   432
27.8541   473
27.8641   417
27.8741   460
27.8841   444
27.8941   420
27.9041   423
27.9141   441
27.9241   423
27.9341   437
27.9441   407
27.9541   408
27.9641   430
27.9741   421
27.9841   409
27.9941   411
28.0041   450
28.0141   450
28.0241   445
28.0341   429
28.0441   414
28.0541   417
28.0641   420
28.0741   425
28.0841   427
28.0941   418
28.1041   407
28.1141   424
28.1241   413
28.1341   393
28.1441   410
28.1541   413
28.1641   416
28.1741   413
28.1841   410
28.1941   391
28.2041   421
28.2141   391
28.2241   434
28.2341   375
28.2441   422
28.2541   393
28.2641   404
28.2741   408
28.2841   429
28.2941   446
28.3041   432
28.3141   398
28.3241   440
28.3341   404
28.3441   421
28.3541   383
28.3641   414
28.3741   411
28.3841   397
28.3941   412
28.4041   385
28.4141   399
28.4241   391
28.4341   444
28.4441   402
28.4541   416
28.4641   380
28.4741   399
28.4841   378
28.4941   414
28.5041   409
28.5141   403
28.5241   428
28.5341   429
28.5441   414
28.5541   393
28.5641   371
28.5741   394
28.5841   415
28.5941   435
28.6041   390
28.6141   384
28.6241   372
28.6341   376
28.6441   396
28.6541   419
28.6641   399
28.6741   385
28.6841   332
28.6941   386
28.7041   365
28.7141   383
28.7241   380
28.7341   344
28.7441   408
28.7541   385
28.7641   392
28.7741   351
28.7841   404
28.7941   389
28.8041   390
28.8141   373
28.8241   369
28.8341   425
28.8441   382
28.8541   382
28.8641   374
28.8741   357
28.8841   386
28.8941   416
28.9041   401
28.9141   372
28.9241   349
28.9341   385
28.9441   394
28.9541   367
28.9641   335
28.9741   396
28.9841   409
28.9941   394
29.0041   359
29.0141   379
29.0241   367
29.0341   392
29.0441   356
29.0541   372
29.0641   382
29.0741   362
29.0841   393
29.0941   386
29.1041   407
29.1141   391
29.1241   353
29.1341   372
29.1441   368
29.1541   334
29.1641   364
29.1741   368
29.1841   381
29.1941   382
29.2041   375
29.2141   337
29.2241   343
29.2341   366
29.2441   365
29.2541   339
29.2641   360
29.2741   372
29.2841   344
29.2941   364
29.3041   381
29.3141   344
29.3241   361
29.3341   389
29.3441   358
29.3541   381
29.3641   350
29.3741   366
29.3841   362
29.3941   380
29.4041   377
29.4141   355
29.4241   368
29.4341   377
29.4441   345
29.4541   364
29.4641   355
29.4741   391
29.4841   365
29.4941   370
29.5041   362
29.5141   343
29.5241   342
29.5341   328
29.5441   344
29.5541   342
29.5641   362
29.5741   340
29.5841   358
29.5941   344
29.6041   349
29.6141   366
29.6241   377
29.6341   360
29.6441   367
29.6541   343
29.6641   348
29.6741   351
29.6841   337
29.6941   342
29.7041   386
29.7141   336
29.7241   372
29.7341   347
29.7441   329
29.7541   326
29.7641   329
29.7741   352
29.7841   325
29.7941   313
29.8041   366
29.8141   355
29.8241   341
29.8341   343
29.8441   294
29.8541   328
29.8641   353
29.8741   320
29.8841   327
29.8941   325
29.9041   325
29.9141   302
29.9241   349
29.9341   328
29.9441   338
29.9541   341
29.9641   313
29.9741   328
29.9841   348
29.9941   318
30.0041   334
30.0141   348
30.0241   307
30.0341   341
30.0441   326
30.0541   315
30.0641   319
30.0741   319
30.0841   307
30.0941   307
30.1041   345
30.1141   337
30.1241   339
30.1341   317
30.1441   323
30.1541   328
30.1641   336
30.1741   339
30.1841   304
30.1941   327
30.2041   284
30.2141   300
30.2241   311
30.2341   342
30.2441   322
30.2541   313
30.2641   338
30.2741   329
30.2841   319
30.2941   314
30.3041   307
30.3141   327
30.3241   314
30.3341   326
30.3441   299
30.3541   312
30.3641   302
30.3741   297
30.3841   313
30.3941   326
30.4041   331
30.4141   316
30.4241   327
30.4341   320
30.4441   306
30.4541   297
30.4641   324
30.4741   316
30.4841   294
30.4941   329
30.5041   317
30.5141   321
30.5241   285
30.5341   279
30.5441   290
30.5541   303
30.5641   296
30.5741   293
30.5841   305
30.5941   328
30.6041   311
30.6141   338
30.6241   311
30.6341   294
30.6441   316
30.6541   311
30.6641   307
30.6741   312
30.6841   305
30.6941   294
30.7041   294
30.7141   329
30.7241   291
30.7341   280
30.7441   274
30.7541   300
30.7641   270
30.7741   270
30.7841   323
30.7941   309
30.8041   304
30.8141   299
30.8241   293
30.8341   303
30.8441   310
30.8541   289
30.8641   271
30.8741   291
30.8841   298
30.8941   298
30.9041   301
30.9141   279
30.9241   282
30.9341   323
30.9441   309
30.9541   295
30.9641   293
30.9741   271
30.9841   268
30.9941   249
31.0041   279
31.0141   279
31.0241   297
31.0341   313
31.0441   276
31.0541   281
31.0641   275
31.0741   272
31.0841   277
31.0941   286
31.1041   304
31.1141   284
31.1241   287
31.1341   274
31.1441   302
31.1541   265
31.1641   281
31.1741   306
31.1841   259
31.1941   261
31.2041   269
31.2141   298
31.2241   268
31.2341   273
31.2441   257
31.2541   283
31.2641   266
31.2741   265
31.2841   263
31.2941   255
31.3041   263
31.3141   273
31.3241   295
31.3341   290
31.3441   263
31.3541   245
31.3641   275
31.3741   273
31.3841   276
31.3941   268
31.4041   275
31.4141   279
31.4241   268
31.4341   283
31.4441   263
31.4541   253
31.4641   287
31.4741   287
31.4841   280
31.4941   265
31.5041   257
31.5141   276
31.5241   300
31.5341   250
31.5441   263
31.5541   247
31.5641   278
31.5741   266
31.5841   261
31.5941   283
31.6041   258
31.6141   254
31.6241   287
31.6341   269
31.6441   284
31.6541   253
31.6641   269
31.6741   300
31.6841   308
31.6941   303
31.7041   303
31.7141   280
31.7241   286
31.7341   308
31.7441   295
31.7541   293
31.7641   278
31.7741   293
31.7841   293
31.7941   299
31.8041   295
31.8141   285
31.8241   315
31.8341   313
31.8441   274
31.8541   310
31.8641   307
31.8741   292
31.8841   303
31.8941   290
31.9041   281
31.9141   283
31.9241   302
31.9341   323
31.9441   265
31.9541   282
31.9641   341
31.9741   287
31.9841   269
31.9941   307
32.0041   262
32.0141   264
32.0241   303
32.0341   311
32.0441   299
32.0541   287
32.0641   304
32.0741   307
32.0841   294
32.0941   329
32.1041   330
32.1141   327
32.1241   297
32.1341   282
32.1441   288
32.1541   320
32.1641   317
32.1741   286
32.1841   343
32.1941   329
32.2041   327
32.2141   321
32.2241   328
32.2341   301
32.2441   319
32.2541   289
32.2641   320
32.2741   280
32.2841   295
32.2941   283
32.3041   286
32.3141   263
32.3241   260
32.3341   290
32.3441   246
32.3541   301
32.3641   261
32.3741   273
32.3841   265
32.3941   232
32.4041   250
32.4141   259
32.4241   265
32.4341   235
32.4441   272
32.4541   256
32.4641   246
32.4741   237
32.4841   241
32.4941   234
32.5041   219
32.5141   240
32.5241   251
32.5341   206
32.5441   223
32.5541   214
32.5641   222
32.5741   217
32.5841   221
32.5941   212
32.6041   229
32.6141   232
32.6241   247
32.6341   200
32.6441   188
32.6541   222
32.6641   235
32.6741   225
32.6841   193
32.6941   219
32.7041   210
32.7141   215
32.7241   206
32.7341   221
32.7441   196
32.7541   219
32.7641   213
32.7741   197
32.7841   195
32.7941   227
32.8041   216
32.8141   213
32.8241   225
32.8341   219
32.8441   212
32.8541   210
32.8641   222
32.8741   195
32.8841   192
32.8941   205
32.9041   203
32.9141   206
32.9241   224
32.9341   209
32.9441   200
32.9541   209
32.9641   216
32.9741   177
32.9841   225
32.9941   226
33.0041   188
33.0141   204
33.0241   210
33.0341   205
33.0441   203
33.0541   199
33.0641   198
33.0741   199
33.0841   201
33.0941   205
33.1041   216
33.1141   210
33.1241   210
33.1341   173
33.1441   158
33.1541   226
33.1641   192
33.1741   233
33.1841   198
33.1941   181
33.2041   193
33.2141   183
33.2241   210
33.2341   195
33.2441   191
33.2541   230
33.2641   207
33.2741   194
33.2841   197
33.2941   185
33.3041   214
33.3141   207
33.3241   236
33.3341   179
33.3441   204
33.3541   200
33.3641   191
33.3741   175
33.3841   214
33.3941   194
33.4041   186
33.4141   176
33.4241   217
33.4341   191
33.4441   200
33.4541   194
33.4641   176
33.4741   193
33.4841   195
33.4941   187
33.5041   194
33.5141   159
33.5241   208
33.5341   198
33.5441   182
33.5541   190
33.5641   184
33.5741   166
33.5841   181
33.5941   187
33.6041   178
33.6141   190
33.6241   195
33.6341   190
33.6441   190
33.6541   184
33.6641   189
33.6741   183
33.6841   181
33.6941   205
33.7041   174
33.7141   161
33.7241   173
33.7341   201
33.7441   171
33.7541   180
33.7641   160
33.7741   206
33.7841   201
33.7941   165
33.8041   159
33.8141   186
33.8241   171
33.8341   181
33.8441   182
33.8541   207
33.8641   186
33.8741   193
33.8841   168
33.8941   165
33.9041   183
33.9141   178
33.9241   182
33.9341   162
33.9441   177
33.9541   174
33.9641   167
33.9741   183
33.9841   176
33.9941   187
34.0041   189
34.0141   179
34.0241   177
34.0341   186
34.0441   153
34.0541   160
34.0641   155
34.0741   151
34.0841   167
34.0941   190
34.1041   156
34.1141   165
34.1241   181
34.1341   178
34.1441   176
34.1541   163
34.1641   191
34.1741   181
34.1841   162
34.1941   175
34.2041   169
34.2141   163
34.2241   138
34.2341   162
34.2441   141
34.2541   170
34.2641   143
34.2741   158
34.2841   154
34.2941   178
34.3041   173
34.3141   136
34.3241   150
34.3341   173
34.3441   167
34.3541   150
34.3641   150
34.3741   140
34.3841   178
34.3941   157
34.4041   168
34.4141   158
34.4241   160
34.4341   158
34.4441   148
34.4541   174
34.4641   156
34.4741   147
34.4841   149
34.4941   158
34.5041   155
34.5141   156
34.5241   143
34.5341   157
34.5441   144
34.5541   171
34.5641   154
34.5741   151
34.5841   166
34.5941   158
34.6041   161
34.6141   155
34.6241   153
34.6341   156
34.6441   145
34.6541   174
34.6641   148
34.6741   151
34.6841   154
34.6941   131
34.7041   160
34.7141   141
34.7241   131
34.7341   150
34.7441   132
34.7541   141
34.7641   149
34.7741   127
34.7841   159
34.7941   141
34.8041   158
34.8141   150
34.8241   157
34.8341   140
34.8441   157
34.8541   155
34.8641   149
34.8741   150
34.8841   166
34.8941   131
34.9041   135
34.9141   144
34.9241   144
34.9341   143
34.9441   134
34.9541   130
34.9641   130
34.9741   142
34.9841   134
34.9941   136
35.0041   140
35.0141   135
35.0241   124
35.0341   166
35.0441   127
35.0541   147
35.0641   152
35.0741   142
35.0841   131
35.0941   150
35.1041   140
35.1141   143
35.1241   143
35.1341   143
35.1441   136
35.1541   138
35.1641   133
35.1741   154
35.1841   136
35.1941   147
35.2041   139
35.2141   141
35.2241   141
35.2341   143
35.2441   137
35.2541   128
35.2641   137
35.2741   151
35.2841   137
35.2941   142
35.3041   136
35.3141   147
35.3241   143
35.3341   134
35.3441   139
35.3541   129
35.3641   138
35.3741   134
35.3841   134
35.3941   125
35.4041   125
35.4141   132
35.4241   158
35.4341   152
35.4441   127
35.4541   137
35.4641   145
35.4741   104
35.4841   129
35.4941   135
35.5041   151
35.5141   130
35.5241   124
35.5341   121
35.5441   110
35.5541   123
35.5641   136
35.5741   128
35.5841   121
35.5941   138
35.6041   119
35.6141   119
35.6241   121
35.6341   113
35.6441   116
35.6541   140
35.6641   125
35.6741   138
35.6841   135
35.6941   123
35.7041   119
35.7141   119
35.7241   130
35.7341   121
35.7441   133
35.7541   111
35.7641   112
35.7741   134
35.7841   122
35.7941   119
35.8041   125
35.8141   121
35.8241   111
35.8341   121
35.8441   125
35.8541   117
35.8641   112
35.8741   103
35.8841   140
35.8941    97
35.9041   105
35.9141    98
35.9241   107
35.9341   121
35.9441   114
35.9541    98
35.9641   132
35.9741   138
35.9841   133
35.9941   119
36.0041   106
36.0141   119
36.0241   114
36.0341   120
36.0441   110
36.0541   131
36.0641   124
36.0741   104
36.0841   116
36.0941   111
36.1041    94
36.1141   129
36.1241   128
36.1341   119
36.1441   133
36.1541   136
36.1641   107
36.1741   104
36.1841   124
36.1941   120
36.2041   115
36.2141   111
36.2241   141
36.2341   121
36.2441   117
36.2541   128
36.2641   120
36.2741   117
36.2841   106
36.2941   125
36.3041   113
36.3141   122
36.3241   137
36.3341   135
36.3441   136
36.3541   113
36.3641   109
36.3741   122
36.3841   125
36.3941   118
36.4041   140
36.4141   108
36.4241   115
36.4341   124
36.4441   124
36.4541   125
36.4641   100
36.4741   109
36.4841   106
36.4941   115
36.5041   113
36.5141   117
36.5241    99
36.5341    92
36.5441   110
36.5541   113
36.5641   116
36.5741    90
36.5841   112
36.5941    98
36.6041   100
36.6141   108
36.6241   109
36.6341   116
36.6441   112
36.6541    96
36.6641   111
36.6741   114
36.6841   102
36.6941   106
36.7041   106
36.7141    98
36.7241   100
36.7341   105
36.7441    86
36.7541    86
36.7641    99
36.7741    95
36.7841   100
36.7941    82
36.8041   120
36.8141    97
36.8241    90
36.8341    91
36.8441    93
36.8541   104
36.8641   112
36.8741   118
36.8841   100
36.8941   109
36.9041   105
36.9141   103
36.9241    93
36.9341    87
36.9441    88
36.9541    92
36.9641    92
36.9741    82
36.9841    75
36.9941    85
37.0041   101
37.0141    87
37.0241    94
37.0341    85
37.0441    82
37.0541    95
37.0641    84
37.0741    89
37.0841    83
37.0941    86
37.1041   108
37.1141    87
37.1241    96
37.1341   102
37.1441   103
37.1541    91
37.1641    84
37.1741    97
37.1841    94
37.1941    78
37.2041    96
37.2141    78
37.2241    77
37.2341    88
37.2441   108
37.2541    96
37.2641   104
37.2741    76
37.2841    91
37.2941    83
37.3041    90
37.3141    90
37.3241   100
37.3341   100
37.3441    82
37.3541    91
37.3641    85
37.3741    89
37.3841    92
37.3941    85
37.4041    78
37.4141    82
37.4241    87
37.4341    88
37.4441    84
37.4541    86
37.4641    85
37.4741    76
37.4841    86
37.4941    74
37.5041    93
37.5141    74
37.5241   103
37.5341    91
37.5441   100
37.5541    80
37.5641    77
37.5741    90
37.5841    88
37.5941    77
37.6041    78
37.6141    75
37.6241    81
37.6341    75
37.6441    80
37.6541    76
37.6641    76
37.6741    70
37.6841    72
37.6941    85
37.7041    78
37.7141    78
37.7241    70
37.7341    77
37.7441    60
37.7541    69
37.7641    59
37.7741    72
37.7841    79
37.7941    68
37.8041    83
37.8141    83
37.8241    70
37.8341    83
37.8441    81
37.8541    86
37.8641    84
37.8741    79
37.8841    67
37.8941    66
37.9041    80
37.9141    77
37.9241    71
37.9341    66
37.9441    62
37.9541    69
37.9641    60
37.9741    56
37.9841    65
37.9941    50
38.0041    72
38.0141    78
38.0241    81
38.0341    80
38.0441    73
38.0541    57
38.0641    74
38.0741    66
38.0841    49
38.0941    78
38.1041    72
38.1141    67
38.1241    68
38.1341    91
38.1441    74
38.1541    66
38.1641    74
38.1741    64
38.1841    79
38.1941    71
38.2041    75
38.2141    64
38.2241    73
38.2341    63
38.2441    57
38.2541    56
38.2641    69
38.2741    53
38.2841    71
38.2941    58
38.3041    76
38.3141    60
38.3241    53
38.3341    61
38.3441    64
38.3541    67
38.3641    64
38.3741    65
38.3841    71
38.3941    64
38.4041    59
38.4141    68
38.4241    57
38.4341    49
38.4441    70
38.4541    83
38.4641    59
38.4741    59
38.4841    60
38.4941    47
38.5041    67
38.5141    83
38.5241    66
38.5341    62
38.5441    59
38.5541    61
38.5641    47
38.5741    55
38.5841    47
38.5941    53
38.6041    61
38.6141    65
38.6241    61
38.6341    78
38.6441    63
38.6541    61
38.6641    53
38.6741    73
38.6841    65
38.6941    78
38.7041    57
38.7141    60
38.7241    59
38.7341    59
38.7441    48
38.7541    53
38.7641    54
38.7741    55
38.7841    41
38.7941    54
38.8041    59
38.8141    60
38.8241    46
38.8341    56
38.8441    51
38.8541    55
38.8641    51
38.8741    54
38.8841    48
38.8941    55
38.9041    42
38.9141    45
38.9241    40
38.9341    54
38.9441    52
38.9541    59
38.9641    55
38.9741    53
38.9841    48
38.9941    50
39.0041    47
39.0141    59
39.0241    55
39.0341    51
39.0441    36
39.0541    57
39.0641    48
39.0741    53
39.0841    55
39.0941    45
39.1041    54
39.1141    51
39.1241    47
39.1341    41
39.1441    46
39.1541    42
39.1641    42
39.1741    49
39.1841    39
39.1941    45
39.2041    45
39.2141    44
39.2241    43
39.2341    48
39.2441    45
39.2541    47
39.2641    52
39.2741    43
39.2841    50
39.2941    47
39.3041    48
39.3141    50
39.3241    50
39.3341    45
39.3441    47
39.3541    41
39.3641    40
39.3741    46
39.3841    48
39.3941    40
39.4041    42
39.4141    46
39.4241    43
39.4341    39
39.4441    44
39.4541    47
39.4641    49
39.4741    40
39.4841    43
39.4941    32
39.5041    42
39.5141    40
39.5241    45
39.5341    42
39.5441    49
39.5541    52
39.5641    55
39.5741    40
39.5841    55
39.5941    40
39.6041    31
39.6141    36
39.6241    49
39.6341    49
39.6441    48
39.6541    46
39.6641    49
39.6741    38
39.6841    40
39.6941    55
39.7041    47
39.7141    48
39.7241    43
39.7341    41
39.7441    39
39.7541    31
39.7641    37
39.7741    41
39.7841    39
39.7941    43
39.8041    38
39.8141    43
39.8241    46
39.8341    42
39.8441    36
39.8541    51
39.8641    41
39.8741    55
39.8841    45
39.8941    35
39.9041    47
39.9141    46
39.9241    47
39.9341    30
39.9441    47
39.9541    35
39.9641    39
39.9741    34
39.9841    45
