Bruker Nano GmbH Berlin, Germany
Esprit 1.9

Date: 4/1/2021 4:50:15 PM
Real time: 30591
Life time: 28795
Pulse density: 83071


Detector type: XFlash 430
Window type: Custom type
Detector thickness: 0.45
Si dead layer:0.029

Calibration, lin.: 10
Calibration, abs.: -955.9
Mn FWHM: 137.05
Fano factor: 0.121
Channels: 4096

Energy Counts
-0.9559     0
-0.9459     0
-0.9359     0
-0.9259     0
-0.9159     0
-0.9059     0
-0.8959     0
-0.8859     0
-0.8759     0
-0.8659     0
-0.8559     0
-0.8459     0
-0.8359     0
-0.8259     0
-0.8159     0
-0.8059     0
-0.7959     0
-0.7859     0
-0.7759     0
-0.7659     0
-0.7559     0
-0.7459     0
-0.7359     0
-0.7259     0
-0.7159     0
-0.7059     0
-0.6959     0
-0.6859     0
-0.6759     0
-0.6659     0
-0.6559     0
-0.6459     0
-0.6359     0
-0.6259     0
-0.6159     0
-0.6059     0
-0.5959     0
-0.5859     0
-0.5759     0
-0.5659     0
-0.5559     0
-0.5459     0
-0.5359     0
-0.5259     0
-0.5159     0
-0.5059     0
-0.4959     0
-0.4859     0
-0.4759     0
-0.4659     0
-0.4559     0
-0.4459     0
-0.4359     0
-0.4259     0
-0.4159     0
-0.4059     0
-0.3959     0
-0.3859     0
-0.3759     0
-0.3659     0
-0.3559     0
-0.3459     0
-0.3359     0
-0.3259     0
-0.3159     0
-0.3059     0
-0.2959     0
-0.2859     0
-0.2759     0
-0.2659     0
-0.2559     0
-0.2459     0
-0.2359     0
-0.2259     0
-0.2159     0
-0.2059     0
-0.1959     0
-0.1859     0
-0.1759     0
-0.1659     0
-0.1559     0
-0.1459     1
-0.1359     0
-0.1259     0
-0.1159     2
-0.1059    23
-0.0959    86
-0.0859   325
-0.0759  1077
-0.0659  3353
-0.0559  8533
-0.0459 18212
-0.0359 34423
-0.0259 54404
-0.0159 75196
-0.0059 88013
 0.0041 88703
 0.0141 76813
 0.0241 56120
 0.0341 35852
 0.0441 19544
 0.0541  9034
 0.0641  3664
 0.0741  1285
 0.0841   366
 0.0941   107
 0.1041    42
 0.1141    16
 0.1241    12
 0.1341     9
 0.1441     7
 0.1541    14
 0.1641    10
 0.1741     5
 0.1841   284
 0.1941   520
 0.2041   497
 0.2141   525
 0.2241   484
 0.2341   476
 0.2441   459
 0.2541   488
 0.2641   505
 0.2741   498
 0.2841   517
 0.2941   493
 0.3041   491
 0.3141   459
 0.3241   468
 0.3341   475
 0.3441   466
 0.3541   490
 0.3641   457
 0.3741   455
 0.3841   462
 0.3941   457
 0.4041   437
 0.4141   448
 0.4241   438
 0.4341   457
 0.4441   454
 0.4541   451
 0.4641   422
 0.4741   427
 0.4841   405
 0.4941   399
 0.5041   411
 0.5141   427
 0.5241   419
 0.5341   422
 0.5441   419
 0.5541   417
 0.5641   408
 0.5741   403
 0.5841   390
 0.5941   388
 0.6041   412
 0.6141   424
 0.6241   418
 0.6341   406
 0.6441   375
 0.6541   374
 0.6641   384
 0.6741   388
 0.6841   398
 0.6941   386
 0.7041   370
 0.7141   350
 0.7241   372
 0.7341   390
 0.7441   360
 0.7541   346
 0.7641   377
 0.7741   382
 0.7841   353
 0.7941   356
 0.8041   355
 0.8141   355
 0.8241   361
 0.8341   369
 0.8441   350
 0.8541   343
 0.8641   344
 0.8741   357
 0.8841   355
 0.8941   350
 0.9041   337
 0.9141   336
 0.9241   341
 0.9341   323
 0.9441   325
 0.9541   330
 0.9641   343
 0.9741   331
 0.9841   324
 0.9941   308
 1.0041   337
 1.0141   333
 1.0241   317
 1.0341   329
 1.0441   335
 1.0541   340
 1.0641   333
 1.0741   286
 1.0841   327
 1.0941   324
 1.1041   335
 1.1141   328
 1.1241   317
 1.1341   320
 1.1441   327
 1.1541   291
 1.1641   303
 1.1741   295
 1.1841   310
 1.1941   310
 1.2041   329
 1.2141   294
 1.2241   288
 1.2341   299
 1.2441   335
 1.2541   299
 1.2641   279
 1.2741   307
 1.2841   294
 1.2941   289
 1.3041   321
 1.3141   293
 1.3241   320
 1.3341   326
 1.3441   329
 1.3541   295
 1.3641   286
 1.3741   311
 1.3841   306
 1.3941   300
 1.4041   265
 1.4141   295
 1.4241   285
 1.4341   304
 1.4441   315
 1.4541   301
 1.4641   313
 1.4741   282
 1.4841   259
 1.4941   335
 1.5041   303
 1.5141   296
 1.5241   300
 1.5341   296
 1.5441   295
 1.5541   262
 1.5641   259
 1.5741   277
 1.5841   278
 1.5941   286
 1.6041   302
 1.6141   278
 1.6241   285
 1.6341   276
 1.6441   323
 1.6541   325
 1.6641   401
 1.6741   478
 1.6841   580
 1.6941   710
 1.7041   878
 1.7141  1019
 1.7241  1070
 1.7341  1108
 1.7441  1110
 1.7541  1075
 1.7641   920
 1.7741   849
 1.7841   708
 1.7941   585
 1.8041   505
 1.8141   446
 1.8241   390
 1.8341   407
 1.8441   364
 1.8541   354
 1.8641   339
 1.8741   314
 1.8841   319
 1.8941   304
 1.9041   278
 1.9141   339
 1.9241   301
 1.9341   299
 1.9441   293
 1.9541   324
 1.9641   347
 1.9741   382
 1.9841   352
 1.9941   348
 2.0041   340
 2.0141   330
 2.0241   338
 2.0341   321
 2.0441   343
 2.0541   289
 2.0641   316
 2.0741   267
 2.0841   274
 2.0941   272
 2.1041   275
 2.1141   283
 2.1241   280
 2.1341   276
 2.1441   274
 2.1541   249
 2.1641   254
 2.1741   239
 2.1841   252
 2.1941   252
 2.2041   276
 2.2141   272
 2.2241   243
 2.2341   231
 2.2441   261
 2.2541   233
 2.2641   270
 2.2741   257
 2.2841   250
 2.2941   253
 2.3041   238
 2.3141   268
 2.3241   249
 2.3341   259
 2.3441   235
 2.3541   261
 2.3641   242
 2.3741   211
 2.3841   213
 2.3941   237
 2.4041   241
 2.4141   233
 2.4241   229
 2.4341   244
 2.4441   239
 2.4541   235
 2.4641   216
 2.4741   229
 2.4841   226
 2.4941   225
 2.5041   218
 2.5141   230
 2.5241   222
 2.5341   248
 2.5441   229
 2.5541   244
 2.5641   217
 2.5741   212
 2.5841   226
 2.5941   221
 2.6041   235
 2.6141   225
 2.6241   207
 2.6341   207
 2.6441   207
 2.6541   222
 2.6641   213
 2.6741   212
 2.6841   215
 2.6941   239
 2.7041   214
 2.7141   194
 2.7241   228
 2.7341   196
 2.7441   215
 2.7541   186
 2.7641   186
 2.7741   219
 2.7841   218
 2.7941   220
 2.8041   227
 2.8141   210
 2.8241   215
 2.8341   261
 2.8441   211
 2.8541   243
 2.8641   224
 2.8741   206
 2.8841   221
 2.8941   191
 2.9041   176
 2.9141   207
 2.9241   200
 2.9341   219
 2.9441   201
 2.9541   204
 2.9641   213
 2.9741   194
 2.9841   206
 2.9941   193
 3.0041   197
 3.0141   196
 3.0241   212
 3.0341   201
 3.0441   212
 3.0541   191
 3.0641   179
 3.0741   199
 3.0841   177
 3.0941   161
 3.1041   209
 3.1141   195
 3.1241   178
 3.1341   170
 3.1441   159
 3.1541   195
 3.1641   180
 3.1741   166
 3.1841   179
 3.1941   141
 3.2041   207
 3.2141   169
 3.2241   186
 3.2341   177
 3.2441   196
 3.2541   234
 3.2641   217
 3.2741   236
 3.2841   211
 3.2941   239
 3.3041   248
 3.3141   273
 3.3241   247
 3.3341   254
 3.3441   232
 3.3541   219
 3.3641   203
 3.3741   197
 3.3841   205
 3.3941   177
 3.4041   181
 3.4141   179
 3.4241   175
 3.4341   138
 3.4441   174
 3.4541   203
 3.4641   173
 3.4741   191
 3.4841   176
 3.4941   208
 3.5041   214
 3.5141   221
 3.5241   240
 3.5341   291
 3.5441   337
 3.5541   475
 3.5641   612
 3.5741   869
 3.5841  1175
 3.5941  1643
 3.6041  2364
 3.6141  3129
 3.6241  4082
 3.6341  5195
 3.6441  6438
 3.6541  7740
 3.6641  8701
 3.6741  9421
 3.6841  9963
 3.6941 10040
 3.7041  9724
 3.7141  8955
 3.7241  7731
 3.7341  6845
 3.7441  5470
 3.7541  4250
 3.7641  3059
 3.7741  2278
 3.7841  1592
 3.7941  1083
 3.8041   766
 3.8141   548
 3.8241   426
 3.8341   311
 3.8441   261
 3.8541   219
 3.8641   227
 3.8741   265
 3.8841   301
 3.8941   332
 3.9041   397
 3.9141   514
 3.9241   618
 3.9341   785
 3.9441   967
 3.9541  1133
 3.9641  1343
 3.9741  1669
 3.9841  1882
 3.9941  2010
 4.0041  2059
 4.0141  2073
 4.0241  2109
 4.0341  1867
 4.0441  1666
 4.0541  1488
 4.0641  1280
 4.0741  1085
 4.0841   866
 4.0941   645
 4.1041   512
 4.1141   376
 4.1241   291
 4.1341   232
 4.1441   199
 4.1541   193
 4.1641   146
 4.1741   140
 4.1841   118
 4.1941   113
 4.2041   114
 4.2141   129
 4.2241   105
 4.2341   113
 4.2441   108
 4.2541   117
 4.2641   133
 4.2741   114
 4.2841   108
 4.2941   114
 4.3041   120
 4.3141   126
 4.3241   117
 4.3341   125
 4.3441   131
 4.3541   122
 4.3641   129
 4.3741   147
 4.3841   134
 4.3941   160
 4.4041   160
 4.4141   172
 4.4241   206
 4.4341   229
 4.4441   260
 4.4541   300
 4.4641   363
 4.4741   374
 4.4841   386
 4.4941   414
 4.5041   415
 4.5141   394
 4.5241   432
 4.5341   387
 4.5441   378
 4.5541   328
 4.5641   284
 4.5741   260
 4.5841   214
 4.5941   207
 4.6041   181
 4.6141   183
 4.6241   147
 4.6341   162
 4.6441   158
 4.6541   135
 4.6641   127
 4.6741   136
 4.6841   135
 4.6941   138
 4.7041   121
 4.7141   120
 4.7241   122
 4.7341   126
 4.7441   110
 4.7541   111
 4.7641   134
 4.7741   117
 4.7841   115
 4.7941   120
 4.8041   132
 4.8141   144
 4.8241   121
 4.8341   135
 4.8441   129
 4.8541   156
 4.8641   154
 4.8741   162
 4.8841   155
 4.8941   160
 4.9041   171
 4.9141   159
 4.9241   175
 4.9341   177
 4.9441   172
 4.9541   182
 4.9641   173
 4.9741   174
 4.9841   159
 4.9941   178
 5.0041   149
 5.0141   148
 5.0241   134
 5.0341   137
 5.0441   119
 5.0541   140
 5.0641   147
 5.0741   146
 5.0841   129
 5.0941   117
 5.1041   114
 5.1141   123
 5.1241   110
 5.1341   130
 5.1441   124
 5.1541   130
 5.1641   131
 5.1741   121
 5.1841   126
 5.1941   132
 5.2041   124
 5.2141   120
 5.2241   113
 5.2341   120
 5.2441   112
 5.2541   152
 5.2641   110
 5.2741   121
 5.2841   136
 5.2941   119
 5.3041   126
 5.3141   111
 5.3241   127
 5.3341   142
 5.3441   102
 5.3541   139
 5.3641   118
 5.3741   147
 5.3841   153
 5.3941   163
 5.4041   141
 5.4141   173
 5.4241   143
 5.4341   151
 5.4441   141
 5.4541   151
 5.4641   132
 5.4741   139
 5.4841   149
 5.4941   136
 5.5041   143
 5.5141   141
 5.5241   133
 5.5341   128
 5.5441   138
 5.5541   150
 5.5641   138
 5.5741   133
 5.5841   126
 5.5941   114
 5.6041   142
 5.6141   129
 5.6241   145
 5.6341   134
 5.6441   127
 5.6541   144
 5.6641   143
 5.6741   126
 5.6841   138
 5.6941   137
 5.7041   158
 5.7141   148
 5.7241   138
 5.7341   136
 5.7441   147
 5.7541   151
 5.7641   153
 5.7741   147
 5.7841   165
 5.7941   149
 5.8041   164
 5.8141   186
 5.8241   200
 5.8341   213
 5.8441   224
 5.8541   234
 5.8641   220
 5.8741   241
 5.8841   267
 5.8941   247
 5.9041   252
 5.9141   228
 5.9241   246
 5.9341   232
 5.9441   222
 5.9541   244
 5.9641   231
 5.9741   230
 5.9841   191
 5.9941   171
 6.0041   164
 6.0141   146
 6.0241   176
 6.0341   147
 6.0441   166
 6.0541   144
 6.0641   153
 6.0741   160
 6.0841   159
 6.0941   144
 6.1041   162
 6.1141   162
 6.1241   152
 6.1341   150
 6.1441   145
 6.1541   170
 6.1641   174
 6.1741   177
 6.1841   210
 6.1941   197
 6.2041   227
 6.2141   238
 6.2241   276
 6.2341   334
 6.2441   393
 6.2541   505
 6.2641   646
 6.2741   853
 6.2841  1100
 6.2941  1420
 6.3041  1702
 6.3141  2214
 6.3241  2725
 6.3341  3235
 6.3441  3866
 6.3541  4383
 6.3641  4848
 6.3741  5142
 6.3841  5566
 6.3941  5611
 6.4041  5556
 6.4141  5440
 6.4241  5166
 6.4341  4659
 6.4441  4299
 6.4541  3737
 6.4641  3137
 6.4741  2547
 6.4841  2054
 6.4941  1654
 6.5041  1322
 6.5141   955
 6.5241   783
 6.5341   577
 6.5441   479
 6.5541   420
 6.5641   297
 6.5741   277
 6.5841   208
 6.5941   181
 6.6041   196
 6.6141   177
 6.6241   202
 6.6341   183
 6.6441   199
 6.6541   184
 6.6641   184
 6.6741   195
 6.6841   195
 6.6941   185
 6.7041   165
 6.7141   189
 6.7241   195
 6.7341   188
 6.7441   204
 6.7541   209
 6.7641   200
 6.7741   184
 6.7841   211
 6.7941   174
 6.8041   202
 6.8141   195
 6.8241   187
 6.8341   208
 6.8441   181
 6.8541   200
 6.8641   252
 6.8741   213
 6.8841   231
 6.8941   264
 6.9041   297
 6.9141   303
 6.9241   298
 6.9341   372
 6.9441   428
 6.9541   490
 6.9641   569
 6.9741   633
 6.9841   743
 6.9941   774
 7.0041   882
 7.0141   975
 7.0241  1040
 7.0341  1067
 7.0441  1142
 7.0541  1144
 7.0641  1095
 7.0741  1067
 7.0841  1021
 7.0941   960
 7.1041   929
 7.1141   789
 7.1241   729
 7.1341   637
 7.1441   564
 7.1541   506
 7.1641   434
 7.1741   415
 7.1841   374
 7.1941   351
 7.2041   304
 7.2141   321
 7.2241   305
 7.2341   310
 7.2441   303
 7.2541   346
 7.2641   331
 7.2741   334
 7.2841   282
 7.2941   316
 7.3041   347
 7.3141   356
 7.3241   364
 7.3341   372
 7.3441   391
 7.3541   405
 7.3641   410
 7.3741   429
 7.3841   416
 7.3941   440
 7.4041   408
 7.4141   418
 7.4241   379
 7.4341   397
 7.4441   380
 7.4541   359
 7.4641   398
 7.4741   356
 7.4841   345
 7.4941   322
 7.5041   319
 7.5141   303
 7.5241   276
 7.5341   293
 7.5441   331
 7.5541   270
 7.5641   298
 7.5741   267
 7.5841   302
 7.5941   284
 7.6041   299
 7.6141   302
 7.6241   273
 7.6341   278
 7.6441   317
 7.6541   311
 7.6641   327
 7.6741   307
 7.6841   350
 7.6941   315
 7.7041   370
 7.7141   345
 7.7241   345
 7.7341   342
 7.7441   369
 7.7541   401
 7.7641   392
 7.7741   395
 7.7841   375
 7.7941   412
 7.8041   393
 7.8141   414
 7.8241   394
 7.8341   424
 7.8441   396
 7.8541   422
 7.8641   464
 7.8741   432
 7.8841   474
 7.8941   491
 7.9041   482
 7.9141   572
 7.9241   580
 7.9341   604
 7.9441   633
 7.9541   644
 7.9641   730
 7.9741   751
 7.9841   803
 7.9941   802
 8.0041   899
 8.0141   976
 8.0241  1032
 8.0341  1091
 8.0441  1156
 8.0541  1218
 8.0641  1305
 8.0741  1422
 8.0841  1513
 8.0941  1530
 8.1041  1712
 8.1141  1683
 8.1241  1871
 8.1341  1859
 8.1441  1978
 8.1541  1924
 8.1641  1971
 8.1741  2116
 8.1841  2041
 8.1941  2133
 8.2041  2160
 8.2141  2209
 8.2241  2228
 8.2341  2199
 8.2441  2308
 8.2541  2297
 8.2641  2442
 8.2741  2562
 8.2841  2766
 8.2941  2844
 8.3041  3033
 8.3141  3309
 8.3241  3562
 8.3341  3742
 8.3441  3939
 8.3541  4073
 8.3641  4429
 8.3741  4262
 8.3841  4334
 8.3941  4358
 8.4041  4265
 8.4141  4086
 8.4241  3945
 8.4341  3614
 8.4441  3313
 8.4541  2955
 8.4641  2609
 8.4741  2236
 8.4841  1953
 8.4941  1681
 8.5041  1452
 8.5141  1224
 8.5241  1025
 8.5341   847
 8.5441   793
 8.5541   702
 8.5641   624
 8.5741   616
 8.5841   569
 8.5941   552
 8.6041   510
 8.6141   529
 8.6241   498
 8.6341   541
 8.6441   522
 8.6541   499
 8.6641   473
 8.6741   508
 8.6841   492
 8.6941   495
 8.7041   507
 8.7141   502
 8.7241   483
 8.7341   484
 8.7441   464
 8.7541   472
 8.7641   495
 8.7741   491
 8.7841   464
 8.7941   493
 8.8041   458
 8.8141   443
 8.8241   425
 8.8341   456
 8.8441   445
 8.8541   465
 8.8641   462
 8.8741   464
 8.8841   479
 8.8941   503
 8.9041   445
 8.9141   482
 8.9241   479
 8.9341   528
 8.9441   527
 8.9541   467
 8.9641   503
 8.9741   520
 8.9841   559
 8.9941   553
 9.0041   571
 9.0141   591
 9.0241   574
 9.0341   596
 9.0441   584
 9.0541   628
 9.0641   654
 9.0741   711
 9.0841   674
 9.0941   712
 9.1041   728
 9.1141   724
 9.1241   814
 9.1341   838
 9.1441   860
 9.1541   883
 9.1641   900
 9.1741   911
 9.1841   988
 9.1941  1003
 9.2041  1047
 9.2141  1196
 9.2241  1192
 9.2341  1298
 9.2441  1300
 9.2541  1295
 9.2641  1425
 9.2741  1468
 9.2841  1606
 9.2941  1633
 9.3041  1757
 9.3141  1802
 9.3241  1807
 9.3341  1877
 9.3441  1896
 9.3541  1992
 9.3641  2046
 9.3741  2081
 9.3841  2079
 9.3941  2117
 9.4041  2139
 9.4141  2218
 9.4241  2192
 9.4341  2260
 9.4441  2274
 9.4541  2245
 9.4641  2334
 9.4741  2303
 9.4841  2336
 9.4941  2370
 9.5041  2450
 9.5141  2554
 9.5241  2657
 9.5341  2655
 9.5441  2766
 9.5541  2942
 9.5641  3166
 9.5741  3296
 9.5841  3537
 9.5941  3610
 9.6041  3876
 9.6141  4132
 9.6241  4306
 9.6341  4369
 9.6441  4509
 9.6541  4671
 9.6641  4723
 9.6741  4661
 9.6841  4623
 9.6941  4510
 9.7041  4338
 9.7141  4059
 9.7241  3767
 9.7341  3573
 9.7441  3377
 9.7541  3141
 9.7641  2853
 9.7741  2689
 9.7841  2452
 9.7941  2394
 9.8041  2187
 9.8141  2107
 9.8241  1935
 9.8341  1886
 9.8441  1869
 9.8541  1893
 9.8641  1935
 9.8741  1879
 9.8841  1911
 9.8941  1959
 9.9041  1999
 9.9141  2071
 9.9241  2074
 9.9341  2079
 9.9441  2135
 9.9541  2090
 9.9641  2011
 9.9741  1932
 9.9841  1848
 9.9941  1792
10.0041  1730
10.0141  1575
10.0241  1470
10.0341  1324
10.0441  1188
10.0541  1092
10.0641   995
10.0741   881
10.0841   768
10.0941   678
10.1041   633
10.1141   596
10.1241   555
10.1341   492
10.1441   476
10.1541   474
10.1641   458
10.1741   388
10.1841   366
10.1941   359
10.2041   369
10.2141   332
10.2241   324
10.2341   357
10.2441   334
10.2541   312
10.2641   277
10.2741   282
10.2841   285
10.2941   257
10.3041   262
10.3141   260
10.3241   275
10.3341   263
10.3441   265
10.3541   263
10.3641   265
10.3741   244
10.3841   265
10.3941   282
10.4041   256
10.4141   239
10.4241   272
10.4341   259
10.4441   260
10.4541   283
10.4641   274
10.4741   263
10.4841   277
10.4941   260
10.5041   257
10.5141   288
10.5241   295
10.5341   300
10.5441   289
10.5541   284
10.5641   270
10.5741   281
10.5841   299
10.5941   309
10.6041   305
10.6141   327
10.6241   323
10.6341   320
10.6441   322
10.6541   334
10.6641   338
10.6741   330
10.6841   326
10.6941   353
10.7041   364
10.7141   346
10.7241   348
10.7341   360
10.7441   365
10.7541   359
10.7641   367
10.7741   381
10.7841   410
10.7941   423
10.8041   404
10.8141   443
10.8241   441
10.8341   447
10.8441   436
10.8541   458
10.8641   452
10.8741   455
10.8841   490
10.8941   463
10.9041   478
10.9141   501
10.9241   487
10.9341   478
10.9441   484
10.9541   468
10.9641   469
10.9741   474
10.9841   478
10.9941   452
11.0041   473
11.0141   457
11.0241   428
11.0341   423
11.0441   421
11.0541   408
11.0641   435
11.0741   438
11.0841   431
11.0941   435
11.1041   425
11.1141   421
11.1241   434
11.1341   429
11.1441   429
11.1541   459
11.1641   469
11.1741   469
11.1841   502
11.1941   517
11.2041   552
11.2141   576
11.2241   617
11.2341   644
11.2441   652
11.2541   668
11.2641   653
11.2741   658
11.2841   712
11.2941   725
11.3041   686
11.3141   635
11.3241   645
11.3341   617
11.3441   607
11.3541   547
11.3641   504
11.3741   491
11.3841   484
11.3941   421
11.4041   445
11.4141   419
11.4241   387
11.4341   388
11.4441   375
11.4541   333
11.4641   342
11.4741   338
11.4841   339
11.4941   337
11.5041   333
11.5141   337
11.5241   342
11.5341   330
11.5441   349
11.5541   357
11.5641   356
11.5741   383
11.5841   373
11.5941   354
11.6041   366
11.6141   379
11.6241   389
11.6341   395
11.6441   363
11.6541   360
11.6641   356
11.6741   356
11.6841   339
11.6941   329
11.7041   308
11.7141   303
11.7241   335
11.7341   330
11.7441   290
11.7541   285
11.7641   276
11.7741   255
11.7841   236
11.7941   263
11.8041   267
11.8141   265
11.8241   257
11.8341   261
11.8441   249
11.8541   265
11.8641   269
11.8741   257
11.8841   254
11.8941   254
11.9041   256
11.9141   258
11.9241   274
11.9341   260
11.9441   264
11.9541   278
11.9641   283
11.9741   263
11.9841   265
11.9941   277
12.0041   291
12.0141   273
12.0241   258
12.0341   266
12.0441   236
12.0541   236
12.0641   249
12.0741   237
12.0841   248
12.0941   260
12.1041   279
12.1141   292
12.1241   276
12.1341   253
12.1441   252
12.1541   253
12.1641   238
12.1741   237
12.1841   234
12.1941   245
12.2041   240
12.2141   261
12.2241   251
12.2341   249
12.2441   261
12.2541   242
12.2641   240
12.2741   240
12.2841   229
12.2941   232
12.3041   246
12.3141   237
12.3241   232
12.3341   228
12.3441   232
12.3541   260
12.3641   250
12.3741   253
12.3841   274
12.3941   274
12.4041   260
12.4141   260
12.4241   253
12.4341   268
12.4441   278
12.4541   262
12.4641   256
12.4741   268
12.4841   261
12.4941   268
12.5041   259
12.5141   279
12.5241   275
12.5341   264
12.5441   272
12.5541   264
12.5641   269
12.5741   263
12.5841   262
12.5941   262
12.6041   255
12.6141   252
12.6241   248
12.6341   241
12.6441   266
12.6541   283
12.6641   262
12.6741   269
12.6841   296
12.6941   283
12.7041   277
12.7141   272
12.7241   269
12.7341   271
12.7441   270
12.7541   274
12.7641   266
12.7741   275
12.7841   265
12.7941   261
12.8041   269
12.8141   272
12.8241   270
12.8341   287
12.8441   284
12.8541   275
12.8641   276
12.8741   269
12.8841   259
12.8941   279
12.9041   298
12.9141   303
12.9241   281
12.9341   262
12.9441   282
12.9541   284
12.9641   300
12.9741   287
12.9841   304
12.9941   305
13.0041   304
13.0141   299
13.0241   280
13.0341   296
13.0441   296
13.0541   292
13.0641   278
13.0741   291
13.0841   295
13.0941   301
13.1041   317
13.1141   310
13.1241   300
13.1341   298
13.1441   309
13.1541   303
13.1641   303
13.1741   310
13.1841   311
13.1941   307
13.2041   285
13.2141   307
13.2241   336
13.2341   323
13.2441   310
13.2541   305
13.2641   302
13.2741   311
13.2841   343
13.2941   345
13.3041   338
13.3141   362
13.3241   376
13.3341   359
13.3441   351
13.3541   363
13.3641   363
13.3741   365
13.3841   350
13.3941   346
13.4041   364
13.4141   351
13.4241   333
13.4341   326
13.4441   337
13.4541   358
13.4641   344
13.4741   357
13.4841   367
13.4941   357
13.5041   344
13.5141   334
13.5241   350
13.5341   337
13.5441   334
13.5541   320
13.5641   307
13.5741   328
13.5841   331
13.5941   320
13.6041   319
13.6141   353
13.6241   373
13.6341   344
13.6441   336
13.6541   349
13.6641   337
13.6741   332
13.6841   347
13.6941   352
13.7041   360
13.7141   352
13.7241   323
13.7341   329
13.7441   348
13.7541   348
13.7641   346
13.7741   357
13.7841   344
13.7941   340
13.8041   358
13.8141   343
13.8241   326
13.8341   352
13.8441   362
13.8541   332
13.8641   336
13.8741   365
13.8841   384
13.8941   380
13.9041   370
13.9141   397
13.9241   390
13.9341   378
13.9441   397
13.9541   405
13.9641   392
13.9741   386
13.9841   407
13.9941   405
14.0041   414
14.0141   450
14.0241   462
14.0341   458
14.0441   471
14.0541   479
14.0641   488
14.0741   526
14.0841   565
14.0941   582
14.1041   577
14.1141   556
14.1241   560
14.1341   591
14.1441   565
14.1541   545
14.1641   572
14.1741   557
14.1841   551
14.1941   561
14.2041   571
14.2141   542
14.2241   490
14.2341   476
14.2441   460
14.2541   451
14.2641   474
14.2741   461
14.2841   438
14.2941   443
14.3041   450
14.3141   449
14.3241   437
14.3341   424
14.3441   420
14.3541   433
14.3641   432
14.3741   416
14.3841   395
14.3941   400
14.4041   401
14.4141   399
14.4241   410
14.4341   407
14.4441   416
14.4541   412
14.4641   392
14.4741   398
14.4841   416
14.4941   417
14.5041   403
14.5141   404
14.5241   419
14.5341   436
14.5441   431
14.5541   410
14.5641   430
14.5741   438
14.5841   407
14.5941   430
14.6041   431
14.6141   415
14.6241   433
14.6341   413
14.6441   417
14.6541   434
14.6641   435
14.6741   433
14.6841   430
14.6941   425
14.7041   424
14.7141   425
14.7241   416
14.7341   450
14.7441   471
14.7541   437
14.7641   420
14.7741   425
14.7841   438
14.7941   447
14.8041   473
14.8141   483
14.8241   452
14.8341   446
14.8441   464
14.8541   480
14.8641   483
14.8741   474
14.8841   468
14.8941   460
14.9041   466
14.9141   490
14.9241   499
14.9341   473
14.9441   486
14.9541   507
14.9641   524
14.9741   506
14.9841   461
14.9941   444
15.0041   453
15.0141   488
15.0241   495
15.0341   467
15.0441   446
15.0541   461
15.0641   447
15.0741   475
15.0841   491
15.0941   476
15.1041   464
15.1141   471
15.1241   473
15.1341   469
15.1441   466
15.1541   445
15.1641   442
15.1741   463
15.1841   468
15.1941   443
15.2041   456
15.2141   459
15.2241   456
15.2341   475
15.2441   463
15.2541   458
15.2641   472
15.2741   481
15.2841   473
15.2941   476
15.3041   488
15.3141   461
15.3241   465
15.3341   503
15.3441   494
15.3541   493
15.3641   466
15.3741   477
15.3841   477
15.3941   452
15.4041   482
15.4141   486
15.4241   474
15.4341   500
15.4441   518
15.4541   523
15.4641   536
15.4741   538
15.4841   517
15.4941   507
15.5041   527
15.5141   531
15.5241   530
15.5341   526
15.5441   531
15.5541   553
15.5641   574
15.5741   601
15.5841   579
15.5941   553
15.6041   590
15.6141   660
15.6241   694
15.6341   712
15.6441   700
15.6541   707
15.6641   732
15.6741   731
15.6841   774
15.6941   809
15.7041   788
15.7141   808
15.7241   887
15.7341   889
15.7441   883
15.7541   909
15.7641   882
15.7741   870
15.7841   868
15.7941   861
15.8041   849
15.8141   820
15.8241   780
15.8341   781
15.8441   812
15.8541   766
15.8641   759
15.8741   722
15.8841   682
15.8941   697
15.9041   647
15.9141   616
15.9241   622
15.9341   598
15.9441   605
15.9541   605
15.9641   588
15.9741   600
15.9841   607
15.9941   561
16.0041   549
16.0141   569
16.0241   567
16.0341   558
16.0441   558
16.0541   575
16.0641   551
16.0741   531
16.0841   560
16.0941   589
16.1041   567
16.1141   561
16.1241   588
16.1341   570
16.1441   550
16.1541   560
16.1641   581
16.1741   597
16.1841   591
16.1941   558
16.2041   564
16.2141   573
16.2241   564
16.2341   578
16.2441   617
16.2541   594
16.2641   566
16.2741   576
16.2841   569
16.2941   594
16.3041   593
16.3141   576
16.3241   577
16.3341   563
16.3441   580
16.3541   583
16.3641   603
16.3741   585
16.3841   569
16.3941   604
16.4041   634
16.4141   619
16.4241   612
16.4341   603
16.4441   594
16.4541   593
16.4641   602
16.4741   591
16.4841   582
16.4941   599
16.5041   613
16.5141   598
16.5241   601
16.5341   596
16.5441   641
16.5541   646
16.5641   619
16.5741   629
16.5841   628
16.5941   607
16.6041   629
16.6141   624
16.6241   627
16.6341   613
16.6441   620
16.6541   620
16.6641   600
16.6741   618
16.6841   610
16.6941   633
16.7041   632
16.7141   647
16.7241   665
16.7341   644
16.7441   643
16.7541   637
16.7641   624
16.7741   630
16.7841   613
16.7941   653
16.8041   622
16.8141   618
16.8241   629
16.8341   666
16.8441   661
16.8541   624
16.8641   620
16.8741   656
16.8841   626
16.8941   656
16.9041   645
16.9141   637
16.9241   624
16.9341   642
16.9441   660
16.9541   641
16.9641   646
16.9741   651
16.9841   656
16.9941   659
17.0041   646
17.0141   636
17.0241   656
17.0341   678
17.0441   655
17.0541   634
17.0641   649
17.0741   664
17.0841   668
17.0941   639
17.1041   656
17.1141   679
17.1241   661
17.1341   594
17.1441   663
17.1541   674
17.1641   663
17.1741   687
17.1841   678
17.1941   705
17.2041   706
17.2141   703
17.2241   676
17.2341   700
17.2441   662
17.2541   670
17.2641   660
17.2741   681
17.2841   682
17.2941   686
17.3041   706
17.3141   682
17.3241   685
17.3341   698
17.3441   672
17.3541   665
17.3641   703
17.3741   689
17.3841   687
17.3941   692
17.4041   697
17.4141   715
17.4241   726
17.4341   703
17.4441   728
17.4541   682
17.4641   680
17.4741   708
17.4841   718
17.4941   701
17.5041   724
17.5141   736
17.5241   740
17.5341   707
17.5441   738
17.5541   766
17.5641   751
17.5741   748
17.5841   761
17.5941   769
17.6041   769
17.6141   732
17.6241   747
17.6341   764
17.6441   755
17.6541   738
17.6641   731
17.6741   769
17.6841   747
17.6941   784
17.7041   802
17.7141   769
17.7241   782
17.7341   793
17.7441   777
17.7541   767
17.7641   744
17.7741   769
17.7841   799
17.7941   763
17.8041   766
17.8141   760
17.8241   717
17.8341   735
17.8441   792
17.8541   771
17.8641   715
17.8741   721
17.8841   762
17.8941   757
17.9041   755
17.9141   754
17.9241   751
17.9341   742
17.9441   723
17.9541   738
17.9641   748
17.9741   736
17.9841   767
17.9941   747
18.0041   769
18.0141   767
18.0241   775
18.0341   771
18.0441   758
18.0541   783
18.0641   793
18.0741   759
18.0841   765
18.0941   793
18.1041   827
18.1141   747
18.1241   778
18.1341   791
18.1441   771
18.1541   767
18.1641   754
18.1741   753
18.1841   752
18.1941   783
18.2041   747
18.2141   744
18.2241   784
18.2341   796
18.2441   820
18.2541   771
18.2641   753
18.2741   768
18.2841   787
18.2941   803
18.3041   771
18.3141   786
18.3241   782
18.3341   758
18.3441   742
18.3541   720
18.3641   722
18.3741   751
18.3841   795
18.3941   793
18.4041   775
18.4141   808
18.4241   769
18.4341   792
18.4441   797
18.4541   757
18.4641   793
18.4741   807
18.4841   830
18.4941   785
18.5041   769
18.5141   767
18.5241   785
18.5341   798
18.5441   814
18.5541   821
18.5641   800
18.5741   827
18.5841   784
18.5941   797
18.6041   857
18.6141   804
18.6241   804
18.6341   754
18.6441   804
18.6541   849
18.6641   799
18.6741   823
18.6841   838
18.6941   821
18.7041   850
18.7141   822
18.7241   786
18.7341   830
18.7441   825
18.7541   826
18.7641   803
18.7741   797
18.7841   807
18.7941   823
18.8041   802
18.8141   802
18.8241   811
18.8341   861
18.8441   817
18.8541   803
18.8641   820
18.8741   820
18.8841   826
18.8941   810
18.9041   857
18.9141   857
18.9241   838
18.9341   849
18.9441   808
18.9541   841
18.9641   857
18.9741   831
18.9841   845
18.9941   871
19.0041   856
19.0141   854
19.0241   808
19.0341   824
19.0441   831
19.0541   854
19.0641   856
19.0741   856
19.0841   865
19.0941   846
19.1041   831
19.1141   825
19.1241   855
19.1341   838
19.1441   846
19.1541   855
19.1641   863
19.1741   851
19.1841   871
19.1941   836
19.2041   849
19.2141   877
19.2241   836
19.2341   848
19.2441   858
19.2541   843
19.2641   838
19.2741   852
19.2841   818
19.2941   840
19.3041   830
19.3141   863
19.3241   907
19.3341   873
19.3441   865
19.3541   829
19.3641   864
19.3741   882
19.3841   889
19.3941   909
19.4041   853
19.4141   826
19.4241   856
19.4341   862
19.4441   844
19.4541   883
19.4641   851
19.4741   868
19.4841   837
19.4941   884
19.5041   892
19.5141   889
19.5241   879
19.5341   820
19.5441   860
19.5541   907
19.5641   882
19.5741   891
19.5841   891
19.5941   876
19.6041   841
19.6141   840
19.6241   903
19.6341   866
19.6441   865
19.6541   922
19.6641   881
19.6741   921
19.6841   855
19.6941   848
19.7041   834
19.7141   907
19.7241   894
19.7341   952
19.7441   958
19.7541   876
19.7641   880
19.7741   868
19.7841   869
19.7941   910
19.8041   909
19.8141   879
19.8241   873
19.8341   875
19.8441   899
19.8541   932
19.8641   859
19.8741   871
19.8841   913
19.8941   967
19.9041   928
19.9141   869
19.9241   906
19.9341   908
19.9441   880
19.9541   901
19.9641   890
19.9741   904
19.9841   914
19.9941   911
20.0041   860
20.0141   876
20.0241   918
20.0341   903
20.0441   856
20.0541   880
20.0641   902
20.0741   867
20.0841   955
20.0941   947
20.1041   942
20.1141   954
20.1241   873
20.1341   947
20.1441   902
20.1541   889
20.1641   864
20.1741   870
20.1841   904
20.1941   894
20.2041   870
20.2141   894
20.2241   884
20.2341   934
20.2441   888
20.2541   916
20.2641   880
20.2741   908
20.2841   901
20.2941   903
20.3041   934
20.3141   910
20.3241   905
20.3341   908
20.3441   891
20.3541   936
20.3641   936
20.3741   961
20.3841   908
20.3941   973
20.4041   915
20.4141   851
20.4241   918
20.4341   928
20.4441   906
20.4541   938
20.4641   911
20.4741   927
20.4841   888
20.4941   895
20.5041   902
20.5141   887
20.5241   912
20.5341   925
20.5441   887
20.5541   935
20.5641   948
20.5741   938
20.5841   903
20.5941   896
20.6041   932
20.6141   915
20.6241   903
20.6341   975
20.6441   955
20.6541   935
20.6641   936
20.6741   922
20.6841   954
20.6941   913
20.7041   901
20.7141   930
20.7241   968
20.7341   844
20.7441   911
20.7541   937
20.7641   929
20.7741   934
20.7841   919
20.7941   949
20.8041   967
20.8141   962
20.8241   954
20.8341   957
20.8441   982
20.8541  1013
20.8641   944
20.8741  1016
20.8841   989
20.8941  1051
20.9041  1104
20.9141  1086
20.9241  1077
20.9341  1101
20.9441  1154
20.9541  1168
20.9641  1132
20.9741  1202
20.9841  1209
20.9941  1235
21.0041  1272
21.0141  1327
21.0241  1327
21.0341  1284
21.0441  1334
21.0541  1367
21.0641  1364
21.0741  1390
21.0841  1381
21.0941  1394
21.1041  1359
21.1141  1437
21.1241  1485
21.1341  1398
21.1441  1379
21.1541  1405
21.1641  1398
21.1741  1389
21.1841  1372
21.1941  1425
21.2041  1367
21.2141  1347
21.2241  1323
21.2341  1251
21.2441  1243
21.2541  1226
21.2641  1216
21.2741  1179
21.2841  1132
21.2941  1119
21.3041  1117
21.3141  1075
21.3241  1052
21.3341  1029
21.3441  1009
21.3541  1024
21.3641  1035
21.3741   923
21.3841   969
21.3941   986
21.4041   927
21.4141   978
21.4241   968
21.4341   933
21.4441   938
21.4541   975
21.4641   935
21.4741   940
21.4841   924
21.4941   954
21.5041   916
21.5141   879
21.5241   912
21.5341   963
21.5441   940
21.5541   884
21.5641   942
21.5741   990
21.5841   955
21.5941   936
21.6041   973
21.6141   954
21.6241   970
21.6341   902
21.6441   917
21.6541   921
21.6641   963
21.6741   930
21.6841   966
21.6941   957
21.7041   982
21.7141   964
21.7241   902
21.7341   968
21.7441   893
21.7541   942
21.7641   943
21.7741   931
21.7841   938
21.7941   912
21.8041   914
21.8141   889
21.8241   892
21.8341   946
21.8441   890
21.8541   878
21.8641   944
21.8741   936
21.8841   913
21.8941   938
21.9041   936
21.9141   941
21.9241   981
21.9341   963
21.9441   919
21.9541   945
21.9641   907
21.9741   947
21.9841   943
21.9941   907
22.0041   934
22.0141   935
22.0241   957
22.0341   957
22.0441   921
22.0541   887
22.0641   933
22.0741   986
22.0841   968
22.0941   946
22.1041   980
22.1141   968
22.1241   899
22.1341   955
22.1441   940
22.1541   905
22.1641   920
22.1741   901
22.1841   991
22.1941   899
22.2041   889
22.2141   941
22.2241   960
22.2341   988
22.2441   942
22.2541   922
22.2641   933
22.2741   902
22.2841   916
22.2941   962
22.3041   936
22.3141   890
22.3241   935
22.3341   893
22.3441   893
22.3541   946
22.3641   935
22.3741   885
22.3841   946
22.3941   939
22.4041   919
22.4141   926
22.4241   951
22.4341   881
22.4441   961
22.4541   892
22.4641   966
22.4741   928
22.4841   910
22.4941   931
22.5041   934
22.5141   925
22.5241   908
22.5341   916
22.5441   921
22.5541   934
22.5641   934
22.5741   880
22.5841   924
22.5941   898
22.6041   902
22.6141   900
22.6241   906
22.6341   912
22.6441   943
22.6541   909
22.6641   931
22.6741   929
22.6841   938
22.6941   961
22.7041   930
22.7141   935
22.7241   922
22.7341   892
22.7441   946
22.7541   965
22.7641   973
22.7741   914
22.7841   928
22.7941   931
22.8041   946
22.8141   900
22.8241   969
22.8341   833
22.8441   987
22.8541   939
22.8641   906
22.8741   890
22.8841   858
22.8941   958
22.9041   883
22.9141   959
22.9241   887
22.9341   902
22.9441   901
22.9541   952
22.9641   955
22.9741   917
22.9841   953
22.9941   890
23.0041   938
23.0141   921
23.0241   896
23.0341   867
23.0441   884
23.0541   928
23.0641  1043
23.0741   952
23.0841   896
23.0941   878
23.1041   954
23.1141   943
23.1241   925
23.1341   931
23.1441   968
23.1541   891
23.1641   916
23.1741   922
23.1841   951
23.1941   914
23.2041   912
23.2141   917
23.2241   917
23.2341   972
23.2441   870
23.2541   877
23.2641   890
23.2741   943
23.2841   917
23.2941   912
23.3041   895
23.3141   914
23.3241   936
23.3341   917
23.3441   891
23.3541   946
23.3641   920
23.3741   853
23.3841   877
23.3941   976
23.4041   833
23.4141   850
23.4241   910
23.4341   893
23.4441   931
23.4541   943
23.4641   908
23.4741   878
23.4841   875
23.4941   887
23.5041   862
23.5141   916
23.5241   892
23.5341   841
23.5441   924
23.5541   935
23.5641   921
23.5741   925
23.5841   917
23.5941   896
23.6041   895
23.6141   929
23.6241   932
23.6341   874
23.6441   919
23.6541   928
23.6641   942
23.6741   927
23.6841  1008
23.6941   973
23.7041  1046
23.7141   956
23.7241   976
23.7341   944
23.7441   965
23.7541  1024
23.7641   981
23.7741   985
23.7841   968
23.7941   986
23.8041   964
23.8141   972
23.8241   961
23.8341   977
23.8441  1021
23.8541  1014
23.8641   937
23.8741   911
23.8841   949
23.8941   923
23.9041   910
23.9141   904
23.9241   959
23.9341   898
23.9441   918
23.9541   878
23.9641   897
23.9741   929
23.9841   871
23.9941   892
24.0041   894
24.0141   938
24.0241   893
24.0341   914
24.0441   897
24.0541   885
24.0641   908
24.0741   941
24.0841   905
24.0941   819
24.1041   862
24.1141   869
24.1241   912
24.1341   915
24.1441   843
24.1541   853
24.1641   861
24.1741   803
24.1841   873
24.1941   881
24.2041   880
24.2141   829
24.2241   850
24.2341   824
24.2441   898
24.2541   866
24.2641   883
24.2741   885
24.2841   880
24.2941   894
24.3041   856
24.3141   877
24.3241   826
24.3341   884
24.3441   874
24.3541   884
24.3641   862
24.3741   879
24.3841   868
24.3941   844
24.4041   902
24.4141   850
24.4241   843
24.4341   885
24.4441   879
24.4541   901
24.4641   826
24.4741   832
24.4841   892
24.4941   872
24.5041   881
24.5141   871
24.5241   865
24.5341   846
24.5441   850
24.5541   829
24.5641   875
24.5741   840
24.5841   847
24.5941   836
24.6041   864
24.6141   851
24.6241   847
24.6341   877
24.6441   846
24.6541   822
24.6641   888
24.6741   854
24.6841   886
24.6941   812
24.7041   835
24.7141   835
24.7241   896
24.7341   853
24.7441   815
24.7541   795
24.7641   840
24.7741   825
24.7841   825
24.7941   826
24.8041   816
24.8141   838
24.8241   833
24.8341   877
24.8441   863
24.8541   801
24.8641   827
24.8741   856
24.8841   802
24.8941   832
24.9041   854
24.9141   861
24.9241   842
24.9341   857
24.9441   788
24.9541   781
24.9641   834
24.9741   837
24.9841   861
24.9941   903
25.0041   820
25.0141   782
25.0241   820
25.0341   839
25.0441   876
25.0541   863
25.0641   877
25.0741   881
25.0841   866
25.0941   860
25.1041   837
25.1141   832
25.1241   850
25.1341   864
25.1441   851
25.1541   868
25.1641   788
25.1741   862
25.1841   833
25.1941   851
25.2041   846
25.2141   860
25.2241   839
25.2341   827
25.2441   837
25.2541   839
25.2641   853
25.2741   837
25.2841   875
25.2941   762
25.3041   821
25.3141   789
25.3241   841
25.3341   801
25.3441   818
25.3541   789
25.3641   814
25.3741   878
25.3841   809
25.3941   839
25.4041   797
25.4141   854
25.4241   809
25.4341   745
25.4441   762
25.4541   829
25.4641   787
25.4741   787
25.4841   804
25.4941   799
25.5041   805
25.5141   824
25.5241   818
25.5341   811
25.5441   832
25.5541   778
25.5641   811
25.5741   796
25.5841   812
25.5941   807
25.6041   769
25.6141   754
25.6241   759
25.6341   810
25.6441   774
25.6541   745
25.6641   782
25.6741   774
25.6841   806
25.6941   802
25.7041   788
25.7141   765
25.7241   808
25.7341   761
25.7441   781
25.7541   789
25.7641   802
25.7741   809
25.7841   783
25.7941   766
25.8041   837
25.8141   778
25.8241   778
25.8341   733
25.8441   767
25.8541   750
25.8641   797
25.8741   721
25.8841   771
25.8941   748
25.9041   773
25.9141   746
25.9241   795
25.9341   753
25.9441   741
25.9541   748
25.9641   803
25.9741   746
25.9841   770
25.9941   805
26.0041   784
26.0141   767
26.0241   778
26.0341   798
26.0441   783
26.0541   822
26.0641   709
26.0741   781
26.0841   766
26.0941   779
26.1041   745
26.1141   767
26.1241   795
26.1341   727
26.1441   723
26.1541   746
26.1641   759
26.1741   763
26.1841   767
26.1941   739
26.2041   755
26.2141   802
26.2241   772
26.2341   776
26.2441   813
26.2541   735
26.2641   745
26.2741   754
26.2841   726
26.2941   768
26.3041   761
26.3141   729
26.3241   746
26.3341   741
26.3441   761
26.3541   799
26.3641   729
26.3741   788
26.3841   760
26.3941   764
26.4041   696
26.4141   742
26.4241   771
26.4341   755
26.4441   704
26.4541   740
26.4641   714
26.4741   766
26.4841   661
26.4941   755
26.5041   735
26.5141   734
26.5241   688
26.5341   739
26.5441   733
26.5541   782
26.5641   740
26.5741   774
26.5841   733
26.5941   680
26.6041   758
26.6141   702
26.6241   701
26.6341   753
26.6441   717
26.6541   695
26.6641   761
26.6741   696
26.6841   742
26.6941   730
26.7041   715
26.7141   747
26.7241   728
26.7341   689
26.7441   636
26.7541   708
26.7641   658
26.7741   686
26.7841   779
26.7941   745
26.8041   679
26.8141   725
26.8241   720
26.8341   681
26.8441   694
26.8541   697
26.8641   681
26.8741   709
26.8841   698
26.8941   674
26.9041   668
26.9141   700
26.9241   677
26.9341   700
26.9441   713
26.9541   689
26.9641   708
26.9741   692
26.9841   676
26.9941   677
27.0041   684
27.0141   687
27.0241   730
27.0341   698
27.0441   703
27.0541   702
27.0641   694
27.0741   662
27.0841   688
27.0941   681
27.1041   692
27.1141   690
27.1241   746
27.1341   690
27.1441   699
27.1541   706
27.1641   683
27.1741   667
27.1841   663
27.1941   735
27.2041   679
27.2141   662
27.2241   728
27.2341   675
27.2441   645
27.2541   684
27.2641   669
27.2741   666
27.2841   674
27.2941   684
27.3041   679
27.3141   662
27.3241   638
27.3341   673
27.3441   681
27.3541   677
27.3641   718
27.3741   682
27.3841   677
27.3941   716
27.4041   718
27.4141   668
27.4241   670
27.4341   668
27.4441   686
27.4541   667
27.4641   681
27.4741   667
27.4841   656
27.4941   668
27.5041   676
27.5141   663
27.5241   679
27.5341   639
27.5441   654
27.5541   673
27.5641   646
27.5741   637
27.5841   633
27.5941   670
27.6041   640
27.6141   668
27.6241   674
27.6341   668
27.6441   668
27.6541   656
27.6641   617
27.6741   682
27.6841   636
27.6941   689
27.7041   676
27.7141   621
27.7241   659
27.7341   586
27.7441   641
27.7541   640
27.7641   644
27.7741   632
27.7841   650
27.7941   654
27.8041   675
27.8141   605
27.8241   625
27.8341   624
27.8441   625
27.8541   642
27.8641   621
27.8741   633
27.8841   611
27.8941   620
27.9041   614
27.9141   651
27.9241   613
27.9341   613
27.9441   643
27.9541   639
27.9641   671
27.9741   622
27.9841   596
27.9941   639
28.0041   624
28.0141   629
28.0241   630
28.0341   586
28.0441   637
28.0541   615
28.0641   645
28.0741   620
28.0841   641
28.0941   651
28.1041   607
28.1141   632
28.1241   612
28.1341   621
28.1441   594
28.1541   601
28.1641   609
28.1741   588
28.1841   601
28.1941   622
28.2041   620
28.2141   599
28.2241   593
28.2341   660
28.2441   621
28.2541   608
28.2641   593
28.2741   600
28.2841   589
28.2941   600
28.3041   575
28.3141   595
28.3241   624
28.3341   578
28.3441   605
28.3541   599
28.3641   584
28.3741   653
28.3841   595
28.3941   609
28.4041   607
28.4141   572
28.4241   601
28.4341   611
28.4441   564
28.4541   584
28.4641   608
28.4741   594
28.4841   598
28.4941   592
28.5041   606
28.5141   605
28.5241   642
28.5341   586
28.5441   578
28.5541   579
28.5641   602
28.5741   565
28.5841   574
28.5941   558
28.6041   590
28.6141   547
28.6241   564
28.6341   569
28.6441   537
28.6541   553
28.6641   581
28.6741   601
28.6841   560
28.6941   567
28.7041   543
28.7141   554
28.7241   599
28.7341   589
28.7441   615
28.7541   556
28.7641   529
28.7741   541
28.7841   550
28.7941   571
28.8041   569
28.8141   588
28.8241   554
28.8341   585
28.8441   576
28.8541   574
28.8641   542
28.8741   575
28.8841   567
28.8941   555
28.9041   577
28.9141   569
28.9241   548
28.9341   537
28.9441   534
28.9541   559
28.9641   571
28.9741   522
28.9841   580
28.9941   565
29.0041   566
29.0141   565
29.0241   550
29.0341   566
29.0441   595
29.0541   570
29.0641   556
29.0741   559
29.0841   556
29.0941   530
29.1041   575
29.1141   511
29.1241   497
29.1341   558
29.1441   521
29.1541   535
29.1641   589
29.1741   511
29.1841   547
29.1941   527
29.2041   532
29.2141   517
29.2241   545
29.2341   529
29.2441   514
29.2541   524
29.2641   510
29.2741   535
29.2841   569
29.2941   541
29.3041   512
29.3141   537
29.3241   577
29.3341   534
29.3441   515
29.3541   533
29.3641   530
29.3741   517
29.3841   502
29.3941   517
29.4041   518
29.4141   528
29.4241   518
29.4341   526
29.4441   521
29.4541   529
29.4641   540
29.4741   500
29.4841   504
29.4941   514
29.5041   541
29.5141   500
29.5241   500
29.5341   492
29.5441   505
29.5541   487
29.5641   509
29.5741   503
29.5841   481
29.5941   497
29.6041   505
29.6141   521
29.6241   533
29.6341   552
29.6441   512
29.6541   521
29.6641   467
29.6741   498
29.6841   541
29.6941   515
29.7041   503
29.7141   482
29.7241   541
29.7341   523
29.7441   523
29.7541   509
29.7641   516
29.7741   502
29.7841   463
29.7941   478
29.8041   503
29.8141   507
29.8241   507
29.8341   477
29.8441   455
29.8541   488
29.8641   490
29.8741   505
29.8841   530
29.8941   481
29.9041   481
29.9141   496
29.9241   486
29.9341   466
29.9441   445
29.9541   465
29.9641   488
29.9741   473
29.9841   490
29.9941   518
30.0041   478
30.0141   475
30.0241   471
30.0341   463
30.0441   460
30.0541   508
30.0641   444
30.0741   479
30.0841   485
30.0941   475
30.1041   489
30.1141   510
30.1241   491
30.1341   483
30.1441   501
30.1541   449
30.1641   460
30.1741   450
30.1841   476
30.1941   472
30.2041   488
30.2141   463
30.2241   474
30.2341   480
30.2441   450
30.2541   465
30.2641   473
30.2741   473
30.2841   449
30.2941   439
30.3041   434
30.3141   464
30.3241   436
30.3341   446
30.3441   456
30.3541   466
30.3641   453
30.3741   496
30.3841   455
30.3941   461
30.4041   457
30.4141   474
30.4241   466
30.4341   464
30.4441   449
30.4541   457
30.4641   458
30.4741   447
30.4841   466
30.4941   438
30.5041   440
30.5141   447
30.5241   465
30.5341   412
30.5441   452
30.5541   483
30.5641   406
30.5741   419
30.5841   446
30.5941   441
30.6041   405
30.6141   443
30.6241   436
30.6341   446
30.6441   427
30.6541   465
30.6641   451
30.6741   443
30.6841   445
30.6941   433
30.7041   434
30.7141   447
30.7241   458
30.7341   446
30.7441   442
30.7541   414
30.7641   458
30.7741   423
30.7841   447
30.7941   421
30.8041   463
30.8141   416
30.8241   450
30.8341   429
30.8441   381
30.8541   445
30.8641   432
30.8741   441
30.8841   430
30.8941   466
30.9041   405
30.9141   429
30.9241   457
30.9341   417
30.9441   437
30.9541   414
30.9641   421
30.9741   398
30.9841   440
30.9941   433
31.0041   446
31.0141   434
31.0241   414
31.0341   402
31.0441   431
31.0541   389
31.0641   393
31.0741   392
31.0841   389
31.0941   417
31.1041   400
31.1141   440
31.1241   429
31.1341   427
31.1441   380
31.1541   416
31.1641   402
31.1741   400
31.1841   401
31.1941   438
31.2041   417
31.2141   428
31.2241   385
31.2341   410
31.2441   353
31.2541   381
31.2641   452
31.2741   413
31.2841   414
31.2941   378
31.3041   403
31.3141   387
31.3241   372
31.3341   384
31.3441   397
31.3541   391
31.3641   422
31.3741   415
31.3841   389
31.3941   363
31.4041   369
31.4141   407
31.4241   396
31.4341   405
31.4441   380
31.4541   387
31.4641   384
31.4741   395
31.4841   365
31.4941   403
31.5041   421
31.5141   413
31.5241   387
31.5341   368
31.5441   362
31.5541   385
31.5641   390
31.5741   400
31.5841   387
31.5941   398
31.6041   379
31.6141   401
31.6241   423
31.6341   402
31.6441   388
31.6541   398
31.6641   386
31.6741   376
31.6841   396
31.6941   348
31.7041   348
31.7141   376
31.7241   392
31.7341   370
31.7441   355
31.7541   366
31.7641   357
31.7741   360
31.7841   350
31.7941   372
31.8041   339
31.8141   322
31.8241   369
31.8341   362
31.8441   364
31.8541   341
31.8641   358
31.8741   361
31.8841   360
31.8941   368
31.9041   375
31.9141   363
31.9241   372
31.9341   357
31.9441   336
31.9541   352
31.9641   348
31.9741   379
31.9841   368
31.9941   367
32.0041   378
32.0141   382
32.0241   342
32.0341   341
32.0441   351
32.0541   329
32.0641   338
32.0741   384
32.0841   343
32.0941   358
32.1041   337
32.1141   366
32.1241   329
32.1341   318
32.1441   325
32.1541   350
32.1641   323
32.1741   346
32.1841   363
32.1941   359
32.2041   366
32.2141   330
32.2241   359
32.2341   344
32.2441   353
32.2541   325
32.2641   367
32.2741   337
32.2841   365
32.2941   359
32.3041   351
32.3141   316
32.3241   317
32.3341   327
32.3441   339
32.3541   351
32.3641   368
32.3741   323
32.3841   327
32.3941   295
32.4041   341
32.4141   327
32.4241   334
32.4341   350
32.4441   357
32.4541   310
32.4641   351
32.4741   315
32.4841   348
32.4941   355
32.5041   352
32.5141   337
32.5241   309
32.5341   332
32.5441   309
32.5541   305
32.5641   321
32.5741   313
32.5841   340
32.5941   352
32.6041   321
32.6141   364
32.6241   341
32.6341   333
32.6441   336
32.6541   334
32.6641   308
32.6741   328
32.6841   292
32.6941   287
32.7041   300
32.7141   317
32.7241   309
32.7341   348
32.7441   304
32.7541   303
32.7641   318
32.7741   315
32.7841   311
32.7941   311
32.8041   287
32.8141   324
32.8241   296
32.8341   301
32.8441   311
32.8541   299
32.8641   320
32.8741   323
32.8841   300
32.8941   301
32.9041   314
32.9141   322
32.9241   290
32.9341   333
32.9441   309
32.9541   309
32.9641   317
32.9741   310
32.9841   310
32.9941   296
33.0041   262
33.0141   284
33.0241   292
33.0341   296
33.0441   293
33.0541   318
33.0641   290
33.0741   290
33.0841   272
33.0941   319
33.1041   304
33.1141   321
33.1241   286
33.1341   296
33.1441   291
33.1541   296
33.1641   301
33.1741   276
33.1841   285
33.1941   305
33.2041   287
33.2141   305
33.2241   294
33.2341   260
33.2441   294
33.2541   260
33.2641   289
33.2741   267
33.2841   286
33.2941   290
33.3041   295
33.3141   267
33.3241   269
33.3341   301
33.3441   296
33.3541   285
33.3641   272
33.3741   278
33.3841   309
33.3941   263
33.4041   292
33.4141   306
33.4241   327
33.4341   288
33.4441   294
33.4541   309
33.4641   267
33.4741   273
33.4841   268
33.4941   257
33.5041   273
33.5141   283
33.5241   298
33.5341   273
33.5441   257
33.5541   285
33.5641   273
33.5741   252
33.5841   250
33.5941   288
33.6041   279
33.6141   276
33.6241   274
33.6341   265
33.6441   262
33.6541   246
33.6641   254
33.6741   238
33.6841   304
33.6941   270
33.7041   252
33.7141   269
33.7241   293
33.7341   256
33.7441   261
33.7541   256
33.7641   275
33.7741   251
33.7841   281
33.7941   252
33.8041   233
33.8141   242
33.8241   257
33.8341   251
33.8441   238
33.8541   270
33.8641   281
33.8741   257
33.8841   245
33.8941   237
33.9041   270
33.9141   260
33.9241   285
33.9341   273
33.9441   283
33.9541   245
33.9641   238
33.9741   243
33.9841   246
33.9941   231
34.0041   284
34.0141   248
34.0241   295
34.0341   248
34.0441   254
34.0541   240
34.0641   248
34.0741   265
34.0841   217
34.0941   255
34.1041   268
34.1141   246
34.1241   243
34.1341   251
34.1441   260
34.1541   240
34.1641   271
34.1741   236
34.1841   238
34.1941   217
34.2041   230
34.2141   248
34.2241   222
34.2341   231
34.2441   232
34.2541   227
34.2641   207
34.2741   236
34.2841   217
34.2941   212
34.3041   221
34.3141   254
34.3241   246
34.3341   263
34.3441   241
34.3541   230
34.3641   250
34.3741   278
34.3841   224
34.3941   215
34.4041   229
34.4141   223
34.4241   230
34.4341   249
34.4441   245
34.4541   237
34.4641   213
34.4741   234
34.4841   236
34.4941   217
34.5041   249
34.5141   215
34.5241   222
34.5341   215
34.5441   223
34.5541   237
34.5641   228
34.5741   236
34.5841   228
34.5941   224
34.6041   218
34.6141   242
34.6241   232
34.6341   243
34.6441   246
34.6541   232
34.6641   246
34.6741   226
34.6841   233
34.6941   231
34.7041   213
34.7141   211
34.7241   211
34.7341   227
34.7441   196
34.7541   211
34.7641   215
34.7741   235
34.7841   227
34.7941   219
34.8041   186
34.8141   221
34.8241   222
34.8341   218
34.8441   189
34.8541   198
34.8641   223
34.8741   212
34.8841   209
34.8941   207
34.9041   209
34.9141   212
34.9241   214
34.9341   226
34.9441   221
34.9541   223
34.9641   227
34.9741   210
34.9841   212
34.9941   214
35.0041   209
35.0141   212
35.0241   217
35.0341   196
35.0441   198
35.0541   206
35.0641   203
35.0741   202
35.0841   204
35.0941   198
35.1041   198
35.1141   226
35.1241   216
35.1341   220
35.1441   182
35.1541   207
35.1641   218
35.1741   201
35.1841   210
35.1941   198
35.2041   212
35.2141   200
35.2241   197
35.2341   201
35.2441   205
35.2541   204
35.2641   185
35.2741   189
35.2841   204
35.2941   225
35.3041   188
35.3141   197
35.3241   201
35.3341   190
35.3441   190
35.3541   209
35.3641   204
35.3741   183
35.3841   186
35.3941   189
35.4041   202
35.4141   180
35.4241   204
35.4341   191
35.4441   198
35.4541   193
35.4641   209
35.4741   180
35.4841   183
35.4941   181
35.5041   190
35.5141   195
35.5241   196
35.5341   192
35.5441   187
35.5541   193
35.5641   173
35.5741   186
35.5841   186
35.5941   186
35.6041   183
35.6141   200
35.6241   154
35.6341   183
35.6441   158
35.6541   184
35.6641   197
35.6741   174
35.6841   202
35.6941   167
35.7041   170
35.7141   188
35.7241   194
35.7341   188
35.7441   167
35.7541   162
35.7641   174
35.7741   177
35.7841   179
35.7941   183
35.8041   184
35.8141   172
35.8241   165
35.8341   179
35.8441   196
35.8541   190
35.8641   177
35.8741   163
35.8841   161
35.8941   172
35.9041   179
35.9141   188
35.9241   159
35.9341   181
35.9441   179
35.9541   170
35.9641   162
35.9741   171
35.9841   175
35.9941   168
36.0041   176
36.0141   164
36.0241   177
36.0341   180
36.0441   166
36.0541   173
36.0641   158
36.0741   176
36.0841   170
36.0941   153
36.1041   161
36.1141   160
36.1241   168
36.1341   161
36.1441   164
36.1541   173
36.1641   171
36.1741   156
36.1841   174
36.1941   177
36.2041   152
36.2141   141
36.2241   151
36.2341   152
36.2441   165
36.2541   142
36.2641   155
36.2741   133
36.2841   141
36.2941   160
36.3041   151
36.3141   139
36.3241   186
36.3341   168
36.3441   155
36.3541   168
36.3641   169
36.3741   155
36.3841   148
36.3941   169
36.4041   160
36.4141   167
36.4241   156
36.4341   170
36.4441   148
36.4541   150
36.4641   150
36.4741   171
36.4841   156
36.4941   143
36.5041   134
36.5141   148
36.5241   182
36.5341   156
36.5441   167
36.5541   146
36.5641   157
36.5741   124
36.5841   169
36.5941   122
36.6041   143
36.6141   161
36.6241   143
36.6341   152
36.6441   156
36.6541   134
36.6641   134
36.6741   146
36.6841   121
36.6941   152
36.7041   159
36.7141   162
36.7241   137
36.7341   137
36.7441   143
36.7541   144
36.7641   138
36.7741   161
36.7841   137
36.7941   147
36.8041   149
36.8141   137
36.8241   121
36.8341   141
36.8441   119
36.8541   147
36.8641   133
36.8741   137
36.8841   134
36.8941   127
36.9041   157
36.9141   138
36.9241   144
36.9341   139
36.9441   134
36.9541   140
36.9641   134
36.9741   127
36.9841   135
36.9941   127
37.0041   139
37.0141   126
37.0241   120
37.0341   114
37.0441   136
37.0541   133
37.0641   130
37.0741   137
37.0841   122
37.0941   132
37.1041   120
37.1141   129
37.1241   139
37.1341   114
37.1441   105
37.1541   120
37.1641   113
37.1741   133
37.1841   142
37.1941   117
37.2041   133
37.2141   137
37.2241   121
37.2341   123
37.2441   137
37.2541   130
37.2641    99
37.2741   131
37.2841   117
37.2941   112
37.3041   106
37.3141   133
37.3241   130
37.3341   115
37.3441   141
37.3541   126
37.3641   118
37.3741   122
37.3841   119
37.3941   105
37.4041   115
37.4141   117
37.4241   128
37.4341   115
37.4441   103
37.4541   120
37.4641   124
37.4741   130
37.4841   120
37.4941   108
37.5041   126
37.5141   112
37.5241   126
37.5341   105
37.5441   127
37.5541   127
37.5641   109
37.5741   120
37.5841   128
37.5941    97
37.6041   124
37.6141   111
37.6241   101
37.6341   124
37.6441   114
37.6541   130
37.6641   109
37.6741   116
37.6841   116
37.6941   117
37.7041   123
37.7141   113
37.7241   109
37.7341   120
37.7441   105
37.7541   119
37.7641    89
37.7741   103
37.7841   130
37.7941   109
37.8041   103
37.8141   112
37.8241   114
37.8341   116
37.8441    99
37.8541   122
37.8641   106
37.8741   110
37.8841   114
37.8941   101
37.9041   101
37.9141   109
37.9241   112
37.9341   105
37.9441   112
37.9541   103
37.9641   103
37.9741   104
37.9841   100
37.9941    99
38.0041   115
38.0141   109
38.0241    99
38.0341   118
38.0441   109
38.0541    93
38.0641    98
38.0741   109
38.0841   102
38.0941   108
38.1041    99
38.1141   101
38.1241   117
38.1341    97
38.1441    98
38.1541    95
38.1641    97
38.1741   100
38.1841    83
38.1941   116
38.2041    88
38.2141    88
38.2241   105
38.2341    94
38.2441   125
38.2541    76
38.2641    93
38.2741    98
38.2841   103
38.2941    89
38.3041    86
38.3141    94
38.3241    98
38.3341   100
38.3441    92
38.3541    94
38.3641    82
38.3741    95
38.3841    91
38.3941    89
38.4041    83
38.4141    87
38.4241    91
38.4341    87
38.4441    88
38.4541    76
38.4641   101
38.4741    77
38.4841    85
38.4941    91
38.5041    97
38.5141   106
38.5241    85
38.5341    90
38.5441    87
38.5541    90
38.5641   104
38.5741    96
38.5841    80
38.5941    85
38.6041    81
38.6141   106
38.6241    83
38.6341    92
38.6441    97
38.6541    99
38.6641   103
38.6741    76
38.6841    68
38.6941    88
38.7041    85
38.7141    76
38.7241    79
38.7341    82
38.7441    87
38.7541    88
38.7641    87
38.7741    99
38.7841    87
38.7941    79
38.8041    91
38.8141    70
38.8241    79
38.8341    81
38.8441    71
38.8541    79
38.8641    79
38.8741    89
38.8841    78
38.8941    75
38.9041    85
38.9141    61
38.9241    71
38.9341    63
38.9441    71
38.9541    80
38.9641    74
38.9741    75
38.9841    81
38.9941    87
39.0041    72
39.0141    77
39.0241    68
39.0341    75
39.0441   100
39.0541    92
39.0641    65
39.0741    73
39.0841    71
39.0941    82
39.1041    72
39.1141    56
39.1241    65
39.1341    74
39.1441    84
39.1541    69
39.1641    65
39.1741    76
39.1841    70
39.1941    86
39.2041    71
39.2141    60
39.2241    69
39.2341    62
39.2441    73
39.2541    81
39.2641    82
39.2741    69
39.2841    84
39.2941    75
39.3041    62
39.3141    78
39.3241    64
39.3341    68
39.3441    57
39.3541    65
39.3641    84
39.3741    75
39.3841    68
39.3941    68
39.4041    54
39.4141    68
39.4241    64
39.4341    63
39.4441    62
39.4541    71
39.4641    62
39.4741    72
39.4841    69
39.4941    59
39.5041    50
39.5141    55
39.5241    74
39.5341    58
39.5441    60
39.5541    63
39.5641    53
39.5741    63
39.5841    56
39.5941    59
39.6041    65
39.6141    58
39.6241    55
39.6341    59
39.6441    55
39.6541    55
39.6641    62
39.6741    62
39.6841    73
39.6941    48
39.7041    60
39.7141    73
39.7241    60
39.7341    57
39.7441    63
39.7541    63
39.7641    63
39.7741    52
39.7841    59
39.7941    64
39.8041    67
39.8141    61
39.8241    41
39.8341    53
39.8441    54
39.8541    46
39.8641    55
39.8741    66
39.8841    61
39.8941    51
39.9041    68
39.9141    54
39.9241    58
39.9341    60
39.9441    45
39.9541    44
39.9641    57
39.9741    56
39.9841    47
39.9941    44
