Bruker Nano GmbH Berlin, Germany
Esprit 1.9

Date: 5/14/2021 3:45:18 PM
Real time: 14977
Life time: 13891
Pulse density: 107426


Detector type: XFlash 430
Window type: Custom type
Detector thickness: 0.45
Si dead layer:0.029

Calibration, lin.: 10
Calibration, abs.: -955.9
Mn FWHM: 137.05
Fano factor: 0.121
Channels: 4095

Energy Counts
-0.9559     0
-0.9459     0
-0.9359     0
-0.9259     0
-0.9159     0
-0.9059     0
-0.8959     0
-0.8859     0
-0.8759     0
-0.8659     0
-0.8559     0
-0.8459     0
-0.8359     0
-0.8259     0
-0.8159     0
-0.8059     0
-0.7959     0
-0.7859     0
-0.7759     0
-0.7659     0
-0.7559     0
-0.7459     0
-0.7359     0
-0.7259     0
-0.7159     0
-0.7059     0
-0.6959     0
-0.6859     0
-0.6759     0
-0.6659     0
-0.6559     0
-0.6459     0
-0.6359     0
-0.6259     0
-0.6159     0
-0.6059     0
-0.5959     0
-0.5859     0
-0.5759     0
-0.5659     0
-0.5559     0
-0.5459     0
-0.5359     0
-0.5259     0
-0.5159     0
-0.5059     0
-0.4959     0
-0.4859     0
-0.4759     0
-0.4659     0
-0.4559     0
-0.4459     0
-0.4359     0
-0.4259     0
-0.4159     0
-0.4059     0
-0.3959     0
-0.3859     0
-0.3759     0
-0.3659     0
-0.3559     0
-0.3459     0
-0.3359     0
-0.3259     0
-0.3159     0
-0.3059     0
-0.2959     0
-0.2859     0
-0.2759     0
-0.2659     0
-0.2559     0
-0.2459     0
-0.2359     0
-0.2259     0
-0.2159     0
-0.2059     0
-0.1959     0
-0.1859     0
-0.1759     0
-0.1659     1
-0.1559     0
-0.1459     0
-0.1359     0
-0.1259     0
-0.1159     4
-0.1059    12
-0.0959    41
-0.0859   144
-0.0759   548
-0.0659  1611
-0.0559  4040
-0.0459  8912
-0.0359 16316
-0.0259 26335
-0.0159 35920
-0.0059 42975
 0.0041 42676
 0.0141 36929
 0.0241 27320
 0.0341 17166
 0.0441  9541
 0.0541  4341
 0.0641  1750
 0.0741   611
 0.0841   199
 0.0941    56
 0.1041    21
 0.1141     7
 0.1241     6
 0.1341     6
 0.1441    11
 0.1541     6
 0.1641     1
 0.1741    18
 0.1841   144
 0.1941   273
 0.2041   240
 0.2141   254
 0.2241   255
 0.2341   260
 0.2441   246
 0.2541   233
 0.2641   243
 0.2741   237
 0.2841   236
 0.2941   255
 0.3041   228
 0.3141   221
 0.3241   231
 0.3341   238
 0.3441   221
 0.3541   220
 0.3641   229
 0.3741   201
 0.3841   219
 0.3941   214
 0.4041   236
 0.4141   231
 0.4241   204
 0.4341   217
 0.4441   198
 0.4541   215
 0.4641   219
 0.4741   220
 0.4841   214
 0.4941   218
 0.5041   223
 0.5141   231
 0.5241   221
 0.5341   209
 0.5441   190
 0.5541   197
 0.5641   203
 0.5741   198
 0.5841   190
 0.5941   183
 0.6041   190
 0.6141   178
 0.6241   179
 0.6341   181
 0.6441   176
 0.6541   183
 0.6641   184
 0.6741   178
 0.6841   168
 0.6941   173
 0.7041   182
 0.7141   183
 0.7241   189
 0.7341   185
 0.7441   197
 0.7541   197
 0.7641   185
 0.7741   181
 0.7841   185
 0.7941   199
 0.8041   186
 0.8141   163
 0.8241   173
 0.8341   170
 0.8441   170
 0.8541   161
 0.8641   168
 0.8741   174
 0.8841   175
 0.8941   166
 0.9041   176
 0.9141   167
 0.9241   165
 0.9341   155
 0.9441   151
 0.9541   149
 0.9641   160
 0.9741   176
 0.9841   151
 0.9941   167
 1.0041   164
 1.0141   165
 1.0241   142
 1.0341   168
 1.0441   166
 1.0541   163
 1.0641   148
 1.0741   157
 1.0841   156
 1.0941   154
 1.1041   162
 1.1141   158
 1.1241   140
 1.1341   155
 1.1441   148
 1.1541   157
 1.1641   176
 1.1741   139
 1.1841   165
 1.1941   159
 1.2041   149
 1.2141   151
 1.2241   149
 1.2341   144
 1.2441   158
 1.2541   139
 1.2641   149
 1.2741   153
 1.2841   147
 1.2941   151
 1.3041   141
 1.3141   148
 1.3241   153
 1.3341   164
 1.3441   160
 1.3541   145
 1.3641   149
 1.3741   155
 1.3841   151
 1.3941   148
 1.4041   145
 1.4141   141
 1.4241   141
 1.4341   146
 1.4441   157
 1.4541   152
 1.4641   146
 1.4741   159
 1.4841   146
 1.4941   149
 1.5041   171
 1.5141   143
 1.5241   150
 1.5341   141
 1.5441   148
 1.5541   146
 1.5641   135
 1.5741   141
 1.5841   123
 1.5941   121
 1.6041   135
 1.6141   128
 1.6241   137
 1.6341   137
 1.6441   148
 1.6541   156
 1.6641   197
 1.6741   231
 1.6841   299
 1.6941   351
 1.7041   412
 1.7141   511
 1.7241   503
 1.7341   551
 1.7441   535
 1.7541   481
 1.7641   451
 1.7741   404
 1.7841   312
 1.7941   295
 1.8041   248
 1.8141   223
 1.8241   202
 1.8341   189
 1.8441   181
 1.8541   149
 1.8641   174
 1.8741   170
 1.8841   167
 1.8941   168
 1.9041   140
 1.9141   158
 1.9241   132
 1.9341   142
 1.9441   145
 1.9541   146
 1.9641   151
 1.9741   163
 1.9841   167
 1.9941   148
 2.0041   177
 2.0141   190
 2.0241   180
 2.0341   155
 2.0441   173
 2.0541   142
 2.0641   165
 2.0741   132
 2.0841   153
 2.0941   154
 2.1041   112
 2.1141   139
 2.1241   129
 2.1341   130
 2.1441   114
 2.1541   125
 2.1641   124
 2.1741   137
 2.1841   117
 2.1941   121
 2.2041   127
 2.2141   125
 2.2241   143
 2.2341   144
 2.2441   145
 2.2541   104
 2.2641   119
 2.2741   133
 2.2841   131
 2.2941   123
 2.3041   120
 2.3141   123
 2.3241   121
 2.3341   129
 2.3441   112
 2.3541   116
 2.3641   122
 2.3741   119
 2.3841   125
 2.3941   118
 2.4041   118
 2.4141   112
 2.4241   130
 2.4341   111
 2.4441   122
 2.4541   149
 2.4641   109
 2.4741   116
 2.4841   111
 2.4941   125
 2.5041   118
 2.5141   111
 2.5241   119
 2.5341   114
 2.5441   120
 2.5541   121
 2.5641   125
 2.5741   116
 2.5841   105
 2.5941    94
 2.6041    81
 2.6141   109
 2.6241   132
 2.6341   112
 2.6441   103
 2.6541   108
 2.6641   113
 2.6741   105
 2.6841   112
 2.6941   115
 2.7041   106
 2.7141    98
 2.7241   103
 2.7341   103
 2.7441   107
 2.7541   102
 2.7641   124
 2.7741   112
 2.7841   118
 2.7941   113
 2.8041   110
 2.8141   126
 2.8241   112
 2.8341   104
 2.8441   144
 2.8541   114
 2.8641   110
 2.8741   104
 2.8841   112
 2.8941    95
 2.9041   110
 2.9141    94
 2.9241   118
 2.9341   107
 2.9441    96
 2.9541   114
 2.9641   108
 2.9741    89
 2.9841    88
 2.9941    87
 3.0041    93
 3.0141    98
 3.0241   106
 3.0341    93
 3.0441    99
 3.0541    98
 3.0641   109
 3.0741    95
 3.0841    84
 3.0941   103
 3.1041    84
 3.1141    71
 3.1241    96
 3.1341    90
 3.1441    98
 3.1541    73
 3.1641    90
 3.1741   107
 3.1841    90
 3.1941   108
 3.2041    98
 3.2141   114
 3.2241   106
 3.2341   146
 3.2441   170
 3.2541   192
 3.2641   228
 3.2741   240
 3.2841   247
 3.2941   287
 3.3041   298
 3.3141   290
 3.3241   308
 3.3341   279
 3.3441   260
 3.3541   240
 3.3641   217
 3.3741   161
 3.3841   142
 3.3941   122
 3.4041   114
 3.4141   115
 3.4241    87
 3.4341    85
 3.4441    95
 3.4541    93
 3.4641    86
 3.4741    76
 3.4841    87
 3.4941    90
 3.5041   100
 3.5141   112
 3.5241   101
 3.5341   119
 3.5441   111
 3.5541   156
 3.5641   161
 3.5741   190
 3.5841   216
 3.5941   270
 3.6041   309
 3.6141   396
 3.6241   444
 3.6341   577
 3.6441   659
 3.6541   765
 3.6641   863
 3.6741   973
 3.6841   966
 3.6941   958
 3.7041   960
 3.7141   857
 3.7241   742
 3.7341   683
 3.7441   573
 3.7541   479
 3.7641   332
 3.7741   247
 3.7841   211
 3.7941   161
 3.8041   132
 3.8141    99
 3.8241    86
 3.8341    88
 3.8441    89
 3.8541    65
 3.8641    93
 3.8741    71
 3.8841    69
 3.8941    86
 3.9041    93
 3.9141    89
 3.9241   106
 3.9341   115
 3.9441   122
 3.9541   123
 3.9641   146
 3.9741   163
 3.9841   179
 3.9941   201
 4.0041   191
 4.0141   176
 4.0241   175
 4.0341   196
 4.0441   192
 4.0541   164
 4.0641   169
 4.0741   127
 4.0841   122
 4.0941   121
 4.1041   103
 4.1141    86
 4.1241    75
 4.1341    54
 4.1441    65
 4.1541    61
 4.1641    74
 4.1741    76
 4.1841    73
 4.1941    65
 4.2041    73
 4.2141    80
 4.2241    54
 4.2341    65
 4.2441    65
 4.2541    59
 4.2641    68
 4.2741    70
 4.2841    60
 4.2941    54
 4.3041    62
 4.3141    66
 4.3241    62
 4.3341    81
 4.3441    75
 4.3541    62
 4.3641    85
 4.3741    93
 4.3841   108
 4.3941   113
 4.4041   128
 4.4141   181
 4.4241   192
 4.4341   235
 4.4441   287
 4.4541   333
 4.4641   370
 4.4741   376
 4.4841   407
 4.4941   428
 4.5041   452
 4.5141   416
 4.5241   420
 4.5341   424
 4.5441   352
 4.5541   306
 4.5641   275
 4.5741   226
 4.5841   183
 4.5941   148
 4.6041   121
 4.6141   122
 4.6241    95
 4.6341   105
 4.6441   101
 4.6541    79
 4.6641   118
 4.6741    76
 4.6841   106
 4.6941    90
 4.7041   100
 4.7141    82
 4.7241    69
 4.7341    88
 4.7441    84
 4.7541    73
 4.7641    87
 4.7741    86
 4.7841    87
 4.7941   110
 4.8041   121
 4.8141   114
 4.8241   118
 4.8341   124
 4.8441   134
 4.8541   121
 4.8641   135
 4.8741   142
 4.8841   141
 4.8941   143
 4.9041   159
 4.9141   169
 4.9241   154
 4.9341   144
 4.9441   147
 4.9541   133
 4.9641   135
 4.9741   147
 4.9841   123
 4.9941   109
 5.0041   100
 5.0141    89
 5.0241    78
 5.0341    90
 5.0441    78
 5.0541    81
 5.0641    73
 5.0741    76
 5.0841    79
 5.0941    84
 5.1041    75
 5.1141    86
 5.1241    95
 5.1341    84
 5.1441    88
 5.1541    79
 5.1641    82
 5.1741    78
 5.1841    82
 5.1941    62
 5.2041   108
 5.2141    84
 5.2241    85
 5.2341    72
 5.2441    72
 5.2541    68
 5.2641    81
 5.2741    84
 5.2841    75
 5.2941    83
 5.3041   102
 5.3141    92
 5.3241   111
 5.3341   140
 5.3441   137
 5.3541   177
 5.3641   192
 5.3741   166
 5.3841   205
 5.3941   203
 5.4041   222
 5.4141   231
 5.4241   217
 5.4341   186
 5.4441   222
 5.4541   184
 5.4641   170
 5.4741   136
 5.4841   149
 5.4941   124
 5.5041   125
 5.5141    95
 5.5241    86
 5.5341   126
 5.5441    90
 5.5541    94
 5.5641    82
 5.5741    97
 5.5841   103
 5.5941    83
 5.6041    88
 5.6141    81
 5.6241    66
 5.6341    72
 5.6441    75
 5.6541    84
 5.6641    96
 5.6741    76
 5.6841    85
 5.6941    98
 5.7041    83
 5.7141    98
 5.7241    92
 5.7341    97
 5.7441   104
 5.7541   121
 5.7641   119
 5.7741   150
 5.7841   145
 5.7941   170
 5.8041   246
 5.8141   239
 5.8241   305
 5.8341   366
 5.8441   400
 5.8541   440
 5.8641   466
 5.8741   531
 5.8841   556
 5.8941   558
 5.9041   583
 5.9141   551
 5.9241   504
 5.9341   436
 5.9441   386
 5.9541   348
 5.9641   326
 5.9741   258
 5.9841   253
 5.9941   212
 6.0041   182
 6.0141   163
 6.0241   165
 6.0341   114
 6.0441   123
 6.0541   129
 6.0641   107
 6.0741   108
 6.0841   145
 6.0941   108
 6.1041   137
 6.1141   124
 6.1241   135
 6.1341   132
 6.1441   148
 6.1541   159
 6.1641   182
 6.1741   180
 6.1841   247
 6.1941   264
 6.2041   320
 6.2141   427
 6.2241   583
 6.2341   842
 6.2441  1199
 6.2541  1627
 6.2641  2273
 6.2741  3007
 6.2841  4098
 6.2941  5424
 6.3041  7106
 6.3141  8891
 6.3241 10893
 6.3341 13335
 6.3441 15646
 6.3541 17729
 6.3641 19873
 6.3741 21351
 6.3841 22944
 6.3941 23082
 6.4041 23333
 6.4141 22315
 6.4241 21025
 6.4341 19124
 6.4441 17505
 6.4541 14968
 6.4641 12863
 6.4741 10393
 6.4841  8370
 6.4941  6619
 6.5041  4999
 6.5141  3738
 6.5241  2790
 6.5341  1963
 6.5441  1342
 6.5541   973
 6.5641   677
 6.5741   494
 6.5841   318
 6.5941   255
 6.6041   205
 6.6141   181
 6.6241   149
 6.6341   152
 6.6441   142
 6.6541   147
 6.6641   133
 6.6741   155
 6.6841   168
 6.6941   134
 6.7041   138
 6.7141   149
 6.7241   131
 6.7341   130
 6.7441   129
 6.7541   160
 6.7641   175
 6.7741   159
 6.7841   164
 6.7941   159
 6.8041   182
 6.8141   161
 6.8241   197
 6.8341   184
 6.8441   199
 6.8541   231
 6.8641   284
 6.8741   248
 6.8841   323
 6.8941   370
 6.9041   463
 6.9141   561
 6.9241   683
 6.9341   889
 6.9441  1102
 6.9541  1263
 6.9641  1545
 6.9741  1919
 6.9841  2174
 6.9941  2495
 7.0041  3015
 7.0141  3111
 7.0241  3387
 7.0341  3742
 7.0441  3684
 7.0541  3660
 7.0641  3719
 7.0741  3615
 7.0841  3511
 7.0941  3131
 7.1041  2791
 7.1141  2479
 7.1241  2064
 7.1341  1732
 7.1441  1455
 7.1541  1161
 7.1641   937
 7.1741   718
 7.1841   601
 7.1941   461
 7.2041   355
 7.2141   293
 7.2241   222
 7.2341   222
 7.2441   196
 7.2541   176
 7.2641   167
 7.2741   173
 7.2841   153
 7.2941   166
 7.3041   167
 7.3141   185
 7.3241   191
 7.3341   209
 7.3441   200
 7.3541   269
 7.3641   257
 7.3741   248
 7.3841   266
 7.3941   316
 7.4041   303
 7.4141   347
 7.4241   360
 7.4341   351
 7.4441   400
 7.4541   409
 7.4641   403
 7.4741   414
 7.4841   426
 7.4941   361
 7.5041   379
 7.5141   392
 7.5241   300
 7.5341   305
 7.5441   244
 7.5541   257
 7.5641   237
 7.5741   222
 7.5841   199
 7.5941   190
 7.6041   164
 7.6141   189
 7.6241   193
 7.6341   175
 7.6441   157
 7.6541   158
 7.6641   175
 7.6741   162
 7.6841   160
 7.6941   174
 7.7041   172
 7.7141   160
 7.7241   166
 7.7341   170
 7.7441   205
 7.7541   185
 7.7641   185
 7.7741   180
 7.7841   187
 7.7941   188
 7.8041   189
 7.8141   186
 7.8241   182
 7.8341   201
 7.8441   217
 7.8541   215
 7.8641   233
 7.8741   240
 7.8841   249
 7.8941   240
 7.9041   278
 7.9141   249
 7.9241   292
 7.9341   294
 7.9441   329
 7.9541   328
 7.9641   363
 7.9741   394
 7.9841   393
 7.9941   435
 8.0041   468
 8.0141   498
 8.0241   564
 8.0341   553
 8.0441   620
 8.0541   640
 8.0641   696
 8.0741   740
 8.0841   777
 8.0941   846
 8.1041   850
 8.1141   887
 8.1241   903
 8.1341   960
 8.1441  1002
 8.1541  1032
 8.1641  1036
 8.1741  1040
 8.1841  1044
 8.1941  1102
 8.2041  1039
 8.2141  1156
 8.2241  1167
 8.2341  1130
 8.2441  1117
 8.2541  1194
 8.2641  1297
 8.2741  1354
 8.2841  1521
 8.2941  1529
 8.3041  1676
 8.3141  1868
 8.3241  2005
 8.3341  2212
 8.3441  2395
 8.3541  2534
 8.3641  2644
 8.3741  2702
 8.3841  2758
 8.3941  2744
 8.4041  2727
 8.4141  2664
 8.4241  2494
 8.4341  2365
 8.4441  2123
 8.4541  1973
 8.4641  1726
 8.4741  1466
 8.4841  1296
 8.4941  1060
 8.5041   899
 8.5141   740
 8.5241   685
 8.5341   577
 8.5441   473
 8.5541   442
 8.5641   349
 8.5741   378
 8.5841   361
 8.5941   340
 8.6041   319
 8.6141   322
 8.6241   304
 8.6341   319
 8.6441   325
 8.6541   317
 8.6641   326
 8.6741   286
 8.6841   282
 8.6941   302
 8.7041   273
 8.7141   272
 8.7241   273
 8.7341   279
 8.7441   278
 8.7541   251
 8.7641   253
 8.7741   244
 8.7841   247
 8.7941   213
 8.8041   216
 8.8141   245
 8.8241   246
 8.8341   220
 8.8441   229
 8.8541   233
 8.8641   224
 8.8741   231
 8.8841   227
 8.8941   224
 8.9041   211
 8.9141   221
 8.9241   231
 8.9341   253
 8.9441   246
 8.9541   246
 8.9641   251
 8.9741   276
 8.9841   261
 8.9941   269
 9.0041   287
 9.0141   305
 9.0241   304
 9.0341   274
 9.0441   312
 9.0541   313
 9.0641   317
 9.0741   323
 9.0841   358
 9.0941   339
 9.1041   367
 9.1141   410
 9.1241   428
 9.1341   427
 9.1441   447
 9.1541   481
 9.1641   512
 9.1741   515
 9.1841   512
 9.1941   567
 9.2041   615
 9.2141   598
 9.2241   633
 9.2341   670
 9.2441   710
 9.2541   721
 9.2641   803
 9.2741   804
 9.2841   782
 9.2941   797
 9.3041   910
 9.3141   923
 9.3241   938
 9.3341   968
 9.3441   991
 9.3541   962
 9.3641  1061
 9.3741  1054
 9.3841  1051
 9.3941  1032
 9.4041  1084
 9.4141  1114
 9.4241  1124
 9.4341  1106
 9.4441  1129
 9.4541  1133
 9.4641  1127
 9.4741  1093
 9.4841  1101
 9.4941  1139
 9.5041  1155
 9.5141  1152
 9.5241  1238
 9.5341  1232
 9.5441  1299
 9.5541  1375
 9.5641  1433
 9.5741  1544
 9.5841  1585
 9.5941  1606
 9.6041  1720
 9.6141  1769
 9.6241  1867
 9.6341  1946
 9.6441  2046
 9.6541  2074
 9.6641  2106
 9.6741  2119
 9.6841  2008
 9.6941  1937
 9.7041  1882
 9.7141  1858
 9.7241  1762
 9.7341  1588
 9.7441  1522
 9.7541  1345
 9.7641  1262
 9.7741  1239
 9.7841  1139
 9.7941  1073
 9.8041  1005
 9.8141   962
 9.8241   952
 9.8341   934
 9.8441   912
 9.8541   921
 9.8641   928
 9.8741   918
 9.8841   986
 9.8941  1019
 9.9041  1056
 9.9141  1040
 9.9241  1118
 9.9341  1160
 9.9441  1159
 9.9541  1085
 9.9641  1101
 9.9741  1069
 9.9841  1027
 9.9941  1006
10.0041   913
10.0141   826
10.0241   747
10.0341   684
10.0441   662
10.0541   574
10.0641   504
10.0741   453
10.0841   440
10.0941   347
10.1041   325
10.1141   303
10.1241   266
10.1341   264
10.1441   248
10.1541   246
10.1641   231
10.1741   201
10.1841   214
10.1941   213
10.2041   203
10.2141   213
10.2241   213
10.2341   191
10.2441   191
10.2541   174
10.2641   162
10.2741   166
10.2841   168
10.2941   157
10.3041   157
10.3141   155
10.3241   145
10.3341   132
10.3441   134
10.3541   124
10.3641   128
10.3741   125
10.3841   112
10.3941   134
10.4041   130
10.4141   133
10.4241   130
10.4341   116
10.4441   124
10.4541   133
10.4641   133
10.4741   130
10.4841   126
10.4941   145
10.5041   122
10.5141   124
10.5241   139
10.5341   152
10.5441   157
10.5541   144
10.5641   147
10.5741   148
10.5841   141
10.5941   128
10.6041   127
10.6141   146
10.6241   161
10.6341   144
10.6441   128
10.6541   137
10.6641   143
10.6741   168
10.6841   183
10.6941   171
10.7041   181
10.7141   159
10.7241   161
10.7341   181
10.7441   181
10.7541   194
10.7641   179
10.7741   183
10.7841   186
10.7941   186
10.8041   188
10.8141   206
10.8241   214
10.8341   212
10.8441   213
10.8541   229
10.8641   245
10.8741   247
10.8841   241
10.8941   231
10.9041   223
10.9141   208
10.9241   202
10.9341   233
10.9441   238
10.9541   237
10.9641   231
10.9741   233
10.9841   234
10.9941   223
11.0041   234
11.0141   223
11.0241   198
11.0341   211
11.0441   209
11.0541   208
11.0641   207
11.0741   223
11.0841   198
11.0941   197
11.1041   207
11.1141   215
11.1241   221
11.1341   202
11.1441   223
11.1541   209
11.1641   225
11.1741   256
11.1841   266
11.1941   280
11.2041   291
11.2141   293
11.2241   284
11.2341   307
11.2441   315
11.2541   335
11.2641   319
11.2741   305
11.2841   312
11.2941   330
11.3041   312
11.3141   311
11.3241   272
11.3341   296
11.3441   271
11.3541   276
11.3641   265
11.3741   238
11.3841   210
11.3941   210
11.4041   202
11.4141   193
11.4241   179
11.4341   168
11.4441   184
11.4541   171
11.4641   160
11.4741   152
11.4841   150
11.4941   159
11.5041   169
11.5141   176
11.5241   157
11.5341   147
11.5441   168
11.5541   158
11.5641   160
11.5741   167
11.5841   159
11.5941   161
11.6041   164
11.6141   150
11.6241   149
11.6341   142
11.6441   155
11.6541   158
11.6641   152
11.6741   145
11.6841   151
11.6941   150
11.7041   132
11.7141   137
11.7241   129
11.7341   133
11.7441   144
11.7541   130
11.7641   125
11.7741   136
11.7841   130
11.7941   120
11.8041   123
11.8141   120
11.8241   128
11.8341   117
11.8441   117
11.8541   142
11.8641   128
11.8741   124
11.8841   125
11.8941   129
11.9041   137
11.9141   129
11.9241   124
11.9341   132
11.9441   136
11.9541   128
11.9641   119
11.9741   116
11.9841   132
11.9941   122
12.0041   130
12.0141   136
12.0241   138
12.0341   132
12.0441   117
12.0541   145
12.0641   134
12.0741   137
12.0841   145
12.0941   143
12.1041   133
12.1141   120
12.1241   130
12.1341   140
12.1441   138
12.1541   135
12.1641   132
12.1741   136
12.1841   119
12.1941   113
12.2041   115
12.2141   119
12.2241   122
12.2341   119
12.2441   127
12.2541   124
12.2641   117
12.2741   134
12.2841   136
12.2941   128
12.3041   117
12.3141   111
12.3241   123
12.3341   114
12.3441   118
12.3541   129
12.3641   122
12.3741   108
12.3841   119
12.3941   125
12.4041   125
12.4141   122
12.4241   115
12.4341   120
12.4441   115
12.4541   113
12.4641   116
12.4741   128
12.4841   131
12.4941   113
12.5041   114
12.5141   125
12.5241   123
12.5341   118
12.5441   134
12.5541   146
12.5641   136
12.5741   132
12.5841   123
12.5941   124
12.6041   121
12.6141   120
12.6241   122
12.6341   125
12.6441   136
12.6541   132
12.6641   130
12.6741   134
12.6841   128
12.6941   123
12.7041   122
12.7141   123
12.7241   125
12.7341   127
12.7441   131
12.7541   132
12.7641   131
12.7741   135
12.7841   137
12.7941   132
12.8041   127
12.8141   127
12.8241   131
12.8341   137
12.8441   143
12.8541   146
12.8641   141
12.8741   133
12.8841   131
12.8941   134
12.9041   133
12.9141   131
12.9241   131
12.9341   136
12.9441   141
12.9541   142
12.9641   141
12.9741   142
12.9841   154
12.9941   137
13.0041   131
13.0141   147
13.0241   137
13.0341   119
13.0441   127
13.0541   143
13.0641   118
13.0741   119
13.0841   135
13.0941   135
13.1041   140
13.1141   153
13.1241   163
13.1341   155
13.1441   143
13.1541   159
13.1641   159
13.1741   158
13.1841   152
13.1941   150
13.2041   147
13.2141   144
13.2241   175
13.2341   171
13.2441   175
13.2541   196
13.2641   195
13.2741   221
13.2841   245
13.2941   227
13.3041   247
13.3141   249
13.3241   248
13.3341   261
13.3441   259
13.3541   262
13.3641   267
13.3741   270
13.3841   268
13.3941   267
13.4041   264
13.4141   257
13.4241   254
13.4341   253
13.4441   250
13.4541   243
13.4641   229
13.4741   216
13.4841   207
13.4941   201
13.5041   200
13.5141   201
13.5241   196
13.5341   186
13.5441   184
13.5541   191
13.5641   195
13.5741   186
13.5841   172
13.5941   163
13.6041   162
13.6141   166
13.6241   163
13.6341   149
13.6441   152
13.6541   161
13.6641   149
13.6741   158
13.6841   175
13.6941   168
13.7041   168
13.7141   171
13.7241   169
13.7341   165
13.7441   161
13.7541   164
13.7641   170
13.7741   177
13.7841   170
13.7941   167
13.8041   167
13.8141   155
13.8241   153
13.8341   160
13.8441   157
13.8541   158
13.8641   168
13.8741   170
13.8841   166
13.8941   167
13.9041   174
13.9141   185
13.9241   194
13.9341   197
13.9441   197
13.9541   200
13.9641   207
13.9741   213
13.9841   218
13.9941   222
14.0041   227
14.0141   238
14.0241   254
14.0341   265
14.0441   274
14.0541   287
14.0641   301
14.0741   308
14.0841   315
14.0941   327
14.1041   331
14.1141   328
14.1241   327
14.1341   332
14.1441   339
14.1541   344
14.1641   348
14.1741   346
14.1841   334
14.1941   316
14.2041   310
14.2141   301
14.2241   286
14.2341   276
14.2441   252
14.2541   242
14.2641   238
14.2741   228
14.2841   218
14.2941   231
14.3041   248
14.3141   222
14.3241   204
14.3341   204
14.3441   181
14.3541   174
14.3641   202
14.3741   199
14.3841   184
14.3941   185
14.4041   177
14.4141   176
14.4241   192
14.4341   204
14.4441   204
14.4541   207
14.4641   194
14.4741   198
14.4841   203
14.4941   190
14.5041   186
14.5141   177
14.5241   174
14.5341   178
14.5441   184
14.5541   178
14.5641   181
14.5741   196
14.5841   181
14.5941   173
14.6041   185
14.6141   190
14.6241   193
14.6341   184
14.6441   190
14.6541   203
14.6641   197
14.6741   188
14.6841   199
14.6941   211
14.7041   183
14.7141   169
14.7241   186
14.7341   207
14.7441   215
14.7541   205
14.7641   198
14.7741   217
14.7841   215
14.7941   209
14.8041   214
14.8141   211
14.8241   222
14.8341   247
14.8441   242
14.8541   246
14.8641   251
14.8741   238
14.8841   237
14.8941   250
14.9041   249
14.9141   257
14.9241   270
14.9341   259
14.9441   248
14.9541   262
14.9641   260
14.9741   271
14.9841   254
14.9941   230
15.0041   237
15.0141   242
15.0241   231
15.0341   235
15.0441   255
15.0541   242
15.0641   207
15.0741   220
15.0841   227
15.0941   207
15.1041   213
15.1141   222
15.1241   219
15.1341   220
15.1441   216
15.1541   208
15.1641   225
15.1741   226
15.1841   203
15.1941   212
15.2041   225
15.2141   207
15.2241   208
15.2341   210
15.2441   213
15.2541   223
15.2641   214
15.2741   218
15.2841   215
15.2941   231
15.3041   221
15.3141   209
15.3241   221
15.3341   242
15.3441   214
15.3541   198
15.3641   213
15.3741   232
15.3841   222
15.3941   204
15.4041   215
15.4141   233
15.4241   209
15.4341   208
15.4441   218
15.4541   223
15.4641   227
15.4741   227
15.4841   219
15.4941   217
15.5041   210
15.5141   234
15.5241   265
15.5341   277
15.5441   272
15.5541   287
15.5641   291
15.5741   290
15.5841   321
15.5941   355
15.6041   355
15.6141   362
15.6241   409
15.6341   428
15.6441   442
15.6541   473
15.6641   499
15.6741   499
15.6841   531
15.6941   551
15.7041   561
15.7141   569
15.7241   609
15.7341   641
15.7441   639
15.7541   628
15.7641   643
15.7741   636
15.7841   641
15.7941   625
15.8041   592
15.8141   546
15.8241   527
15.8341   524
15.8441   494
15.8541   493
15.8641   469
15.8741   425
15.8841   387
15.8941   390
15.9041   361
15.9141   328
15.9241   315
15.9341   312
15.9441   303
15.9541   310
15.9641   304
15.9741   266
15.9841   258
15.9941   256
16.0041   263
16.0141   256
16.0241   242
16.0341   234
16.0441   251
16.0541   250
16.0641   260
16.0741   246
16.0841   234
16.0941   249
16.1041   244
16.1141   232
16.1241   241
16.1341   253
16.1441   254
16.1541   253
16.1641   254
16.1741   244
16.1841   256
16.1941   262
16.2041   235
16.2141   240
16.2241   267
16.2341   261
16.2441   243
16.2541   240
16.2641   253
16.2741   269
16.2841   257
16.2941   252
16.3041   248
16.3141   254
16.3241   244
16.3341   253
16.3441   255
16.3541   263
16.3641   257
16.3741   242
16.3841   253
16.3941   268
16.4041   244
16.4141   261
16.4241   250
16.4341   267
16.4441   268
16.4541   264
16.4641   264
16.4741   279
16.4841   292
16.4941   285
16.5041   281
16.5141   263
16.5241   258
16.5341   266
16.5441   274
16.5541   276
16.5641   280
16.5741   286
16.5841   285
16.5941   278
16.6041   270
16.6141   296
16.6241   295
16.6341   264
16.6441   247
16.6541   263
16.6641   283
16.6741   277
16.6841   286
16.6941   295
16.7041   299
16.7141   281
16.7241   273
16.7341   280
16.7441   282
16.7541   281
16.7641   283
16.7741   280
16.7841   290
16.7941   280
16.8041   279
16.8141   296
16.8241   295
16.8341   286
16.8441   269
16.8541   287
16.8641   277
16.8741   286
16.8841   290
16.8941   259
16.9041   254
16.9141   269
16.9241   288
16.9341   275
16.9441   295
16.9541   295
16.9641   285
16.9741   298
16.9841   286
16.9941   282
17.0041   303
17.0141   287
17.0241   291
17.0341   298
17.0441   289
17.0541   269
17.0641   282
17.0741   295
17.0841   291
17.0941   295
17.1041   305
17.1141   293
17.1241   301
17.1341   301
17.1441   283
17.1541   277
17.1641   274
17.1741   284
17.1841   301
17.1941   281
17.2041   289
17.2141   304
17.2241   276
17.2341   297
17.2441   276
17.2541   273
17.2641   281
17.2741   319
17.2841   329
17.2941   306
17.3041   294
17.3141   295
17.3241   310
17.3341   295
17.3441   289
17.3541   309
17.3641   284
17.3741   300
17.3841   313
17.3941   305
17.4041   320
17.4141   294
17.4241   283
17.4341   305
17.4441   322
17.4541   327
17.4641   342
17.4741   327
17.4841   319
17.4941   339
17.5041   313
17.5141   328
17.5241   359
17.5341   334
17.5441   331
17.5541   320
17.5641   326
17.5741   356
17.5841   351
17.5941   359
17.6041   357
17.6141   352
17.6241   357
17.6341   334
17.6441   335
17.6541   358
17.6641   356
17.6741   380
17.6841   385
17.6941   369
17.7041   365
17.7141   354
17.7241   357
17.7341   356
17.7441   358
17.7541   377
17.7641   366
17.7741   349
17.7841   368
17.7941   352
17.8041   321
17.8141   348
17.8241   316
17.8341   341
17.8441   333
17.8541   341
17.8641   328
17.8741   339
17.8841   319
17.8941   325
17.9041   324
17.9141   312
17.9241   343
17.9341   326
17.9441   316
17.9541   345
17.9641   336
17.9741   338
17.9841   305
17.9941   323
18.0041   360
18.0141   336
18.0241   360
18.0341   346
18.0441   330
18.0541   337
18.0641   349
18.0741   350
18.0841   358
18.0941   345
18.1041   317
18.1141   313
18.1241   333
18.1341   326
18.1441   327
18.1541   353
18.1641   335
18.1741   326
18.1841   355
18.1941   358
18.2041   336
18.2141   345
18.2241   341
18.2341   313
18.2441   327
18.2541   338
18.2641   321
18.2741   322
18.2841   331
18.2941   339
18.3041   338
18.3141   324
18.3241   347
18.3341   332
18.3441   335
18.3541   335
18.3641   335
18.3741   341
18.3841   339
18.3941   353
18.4041   333
18.4141   342
18.4241   321
18.4341   335
18.4441   334
18.4541   327
18.4641   313
18.4741   335
18.4841   335
18.4941   356
18.5041   347
18.5141   385
18.5241   350
18.5341   356
18.5441   358
18.5541   338
18.5641   356
18.5741   362
18.5841   344
18.5941   347
18.6041   344
18.6141   330
18.6241   313
18.6341   330
18.6441   339
18.6541   366
18.6641   356
18.6741   363
18.6841   353
18.6941   355
18.7041   396
18.7141   378
18.7241   353
18.7341   354
18.7441   365
18.7541   371
18.7641   328
18.7741   341
18.7841   345
18.7941   359
18.8041   359
18.8141   361
18.8241   341
18.8341   361
18.8441   382
18.8541   359
18.8641   336
18.8741   366
18.8841   376
18.8941   342
18.9041   371
18.9141   371
18.9241   371
18.9341   351
18.9441   366
18.9541   351
18.9641   355
18.9741   360
18.9841   369
18.9941   350
19.0041   353
19.0141   355
19.0241   320
19.0341   362
19.0441   368
19.0541   356
19.0641   389
19.0741   372
19.0841   345
19.0941   374
19.1041   368
19.1141   370
19.1241   362
19.1341   388
19.1441   356
19.1541   332
19.1641   370
19.1741   381
19.1841   394
19.1941   352
19.2041   376
19.2141   395
19.2241   366
19.2341   349
19.2441   363
19.2541   392
19.2641   363
19.2741   402
19.2841   393
19.2941   370
19.3041   379
19.3141   406
19.3241   401
19.3341   361
19.3441   343
19.3541   387
19.3641   357
19.3741   376
19.3841   401
19.3941   370
19.4041   382
19.4141   401
19.4241   389
19.4341   372
19.4441   382
19.4541   352
19.4641   329
19.4741   355
19.4841   363
19.4941   375
19.5041   384
19.5141   389
19.5241   372
19.5341   378
19.5441   363
19.5541   377
19.5641   356
19.5741   400
19.5841   408
19.5941   386
19.6041   395
19.6141   366
19.6241   356
19.6341   369
19.6441   377
19.6541   370
19.6641   371
19.6741   374
19.6841   384
19.6941   378
19.7041   385
19.7141   377
19.7241   402
19.7341   405
19.7441   388
19.7541   392
19.7641   368
19.7741   356
19.7841   369
19.7941   414
19.8041   404
19.8141   391
19.8241   377
19.8341   422
19.8441   369
19.8541   387
19.8641   397
19.8741   423
19.8841   355
19.8941   357
19.9041   401
19.9141   389
19.9241   374
19.9341   387
19.9441   413
19.9541   390
19.9641   379
19.9741   398
19.9841   442
19.9941   414
20.0041   406
20.0141   396
20.0241   410
20.0341   430
20.0441   410
20.0541   380
20.0641   412
20.0741   421
20.0841   411
20.0941   399
20.1041   400
20.1141   402
20.1241   392
20.1341   393
20.1441   385
20.1541   407
20.1641   407
20.1741   392
20.1841   390
20.1941   394
20.2041   410
20.2141   410
20.2241   402
20.2341   393
20.2441   404
20.2541   407
20.2641   404
20.2741   395
20.2841   397
20.2941   381
20.3041   376
20.3141   398
20.3241   408
20.3341   391
20.3441   389
20.3541   414
20.3641   408
20.3741   423
20.3841   417
20.3941   377
20.4041   357
20.4141   428
20.4241   407
20.4341   398
20.4441   391
20.4541   385
20.4641   390
20.4741   409
20.4841   394
20.4941   402
20.5041   404
20.5141   384
20.5241   409
20.5341   445
20.5441   383
20.5541   399
20.5641   387
20.5741   407
20.5841   432
20.5941   401
20.6041   386
20.6141   416
20.6241   408
20.6341   408
20.6441   418
20.6541   398
20.6641   388
20.6741   416
20.6841   395
20.6941   411
20.7041   393
20.7141   387
20.7241   376
20.7341   401
20.7441   397
20.7541   433
20.7641   438
20.7741   422
20.7841   413
20.7941   435
20.8041   407
20.8141   461
20.8241   426
20.8341   450
20.8441   440
20.8541   449
20.8641   457
20.8741   461
20.8841   448
20.8941   463
20.9041   466
20.9141   476
20.9241   514
20.9341   524
20.9441   521
20.9541   535
20.9641   532
20.9741   550
20.9841   526
20.9941   555
21.0041   619
21.0141   575
21.0241   631
21.0341   644
21.0441   607
21.0541   588
21.0641   620
21.0741   652
21.0841   682
21.0941   610
21.1041   667
21.1141   618
21.1241   648
21.1341   710
21.1441   669
21.1541   662
21.1641   653
21.1741   598
21.1841   619
21.1941   666
21.2041   610
21.2141   616
21.2241   625
21.2341   631
21.2441   614
21.2541   570
21.2641   540
21.2741   517
21.2841   565
21.2941   516
21.3041   491
21.3141   534
21.3241   505
21.3341   460
21.3441   469
21.3541   462
21.3641   417
21.3741   415
21.3841   433
21.3941   425
21.4041   422
21.4141   428
21.4241   414
21.4341   415
21.4441   418
21.4541   423
21.4641   400
21.4741   424
21.4841   418
21.4941   424
21.5041   428
21.5141   424
21.5241   443
21.5341   409
21.5441   415
21.5541   420
21.5641   439
21.5741   425
21.5841   409
21.5941   417
21.6041   441
21.6141   415
21.6241   433
21.6341   430
21.6441   416
21.6541   411
21.6641   446
21.6741   414
21.6841   420
21.6941   433
21.7041   463
21.7141   396
21.7241   413
21.7341   463
21.7441   390
21.7541   432
21.7641   445
21.7741   428
21.7841   370
21.7941   446
21.8041   405
21.8141   410
21.8241   423
21.8341   400
21.8441   415
21.8541   420
21.8641   413
21.8741   435
21.8841   409
21.8941   421
21.9041   444
21.9141   434
21.9241   407
21.9341   432
21.9441   431
21.9541   437
21.9641   415
21.9741   446
21.9841   419
21.9941   418
22.0041   390
22.0141   394
22.0241   393
22.0341   407
22.0441   448
22.0541   412
22.0641   426
22.0741   450
22.0841   412
22.0941   451
22.1041   429
22.1141   417
22.1241   421
22.1341   438
22.1441   439
22.1541   411
22.1641   419
22.1741   426
22.1841   419
22.1941   442
22.2041   406
22.2141   432
22.2241   454
22.2341   432
22.2441   478
22.2541   424
22.2641   432
22.2741   393
22.2841   413
22.2941   423
22.3041   444
22.3141   431
22.3241   441
22.3341   452
22.3441   432
22.3541   496
22.3641   433
22.3741   434
22.3841   426
22.3941   475
22.4041   385
22.4141   428
22.4241   412
22.4341   421
22.4441   425
22.4541   433
22.4641   420
22.4741   394
22.4841   420
22.4941   423
22.5041   413
22.5141   425
22.5241   404
22.5341   408
22.5441   423
22.5541   435
22.5641   403
22.5741   422
22.5841   451
22.5941   427
22.6041   424
22.6141   435
22.6241   411
22.6341   424
22.6441   393
22.6541   432
22.6641   429
22.6741   420
22.6841   412
22.6941   460
22.7041   414
22.7141   424
22.7241   424
22.7341   412
22.7441   384
22.7541   479
22.7641   457
22.7741   417
22.7841   432
22.7941   426
22.8041   416
22.8141   405
22.8241   418
22.8341   409
22.8441   415
22.8541   437
22.8641   432
22.8741   415
22.8841   445
22.8941   415
22.9041   414
22.9141   447
22.9241   423
22.9341   427
22.9441   419
22.9541   398
22.9641   405
22.9741   399
22.9841   425
22.9941   428
23.0041   406
23.0141   445
23.0241   410
23.0341   419
23.0441   415
23.0541   416
23.0641   431
23.0741   404
23.0841   424
23.0941   448
23.1041   411
23.1141   442
23.1241   439
23.1341   414
23.1441   423
23.1541   438
23.1641   446
23.1741   449
23.1841   383
23.1941   408
23.2041   399
23.2141   473
23.2241   424
23.2341   389
23.2441   451
23.2541   390
23.2641   409
23.2741   401
23.2841   372
23.2941   406
23.3041   447
23.3141   413
23.3241   405
23.3341   416
23.3441   414
23.3541   411
23.3641   397
23.3741   402
23.3841   418
23.3941   389
23.4041   412
23.4141   404
23.4241   427
23.4341   402
23.4441   440
23.4541   409
23.4641   428
23.4741   405
23.4841   404
23.4941   432
23.5041   413
23.5141   422
23.5241   424
23.5341   406
23.5441   393
23.5541   417
23.5641   433
23.5741   441
23.5841   411
23.5941   397
23.6041   418
23.6141   406
23.6241   426
23.6341   425
23.6441   426
23.6541   416
23.6641   445
23.6741   423
23.6841   433
23.6941   450
23.7041   455
23.7141   441
23.7241   450
23.7341   415
23.7441   430
23.7541   459
23.7641   438
23.7741   439
23.7841   472
23.7941   443
23.8041   456
23.8141   460
23.8241   467
23.8341   431
23.8441   433
23.8541   462
23.8641   444
23.8741   461
23.8841   418
23.8941   451
23.9041   459
23.9141   417
23.9241   430
23.9341   419
23.9441   446
23.9541   435
23.9641   428
23.9741   413
23.9841   410
23.9941   477
24.0041   453
24.0141   412
24.0241   450
24.0341   424
24.0441   394
24.0541   388
24.0641   392
24.0741   387
24.0841   398
24.0941   417
24.1041   399
24.1141   453
24.1241   445
24.1341   412
24.1441   400
24.1541   424
24.1641   428
24.1741   421
24.1841   411
24.1941   396
24.2041   398
24.2141   415
24.2241   406
24.2341   395
24.2441   392
24.2541   426
24.2641   392
24.2741   413
24.2841   436
24.2941   402
24.3041   400
24.3141   405
24.3241   408
24.3341   402
24.3441   426
24.3541   412
24.3641   394
24.3741   398
24.3841   467
24.3941   401
24.4041   418
24.4141   390
24.4241   388
24.4341   391
24.4441   392
24.4541   388
24.4641   393
24.4741   418
24.4841   393
24.4941   432
24.5041   419
24.5141   401
24.5241   392
24.5341   400
24.5441   385
24.5541   385
24.5641   372
24.5741   376
24.5841   416
24.5941   378
24.6041   405
24.6141   390
24.6241   392
24.6341   375
24.6441   412
24.6541   415
24.6641   401
24.6741   396
24.6841   420
24.6941   417
24.7041   420
24.7141   404
24.7241   368
24.7341   389
24.7441   392
24.7541   399
24.7641   375
24.7741   396
24.7841   401
24.7941   423
24.8041   377
24.8141   396
24.8241   394
24.8341   381
24.8441   376
24.8541   358
24.8641   388
24.8741   387
24.8841   369
24.8941   403
24.9041   402
24.9141   379
24.9241   351
24.9341   367
24.9441   394
24.9541   381
24.9641   366
24.9741   394
24.9841   399
24.9941   403
25.0041   388
25.0141   417
25.0241   389
25.0341   410
25.0441   426
25.0541   362
25.0641   379
25.0741   368
25.0841   379
25.0941   397
25.1041   398
25.1141   390
25.1241   400
25.1341   417
25.1441   394
25.1541   422
25.1641   399
25.1741   431
25.1841   384
25.1941   418
25.2041   408
25.2141   382
25.2241   431
25.2341   382
25.2441   390
25.2541   388
25.2641   384
25.2741   392
25.2841   371
25.2941   405
25.3041   393
25.3141   360
25.3241   364
25.3341   422
25.3441   401
25.3541   384
25.3641   379
25.3741   382
25.3841   400
25.3941   370
25.4041   388
25.4141   380
25.4241   388
25.4341   362
25.4441   393
25.4541   386
25.4641   406
25.4741   361
25.4841   374
25.4941   384
25.5041   368
25.5141   361
25.5241   367
25.5341   387
25.5441   373
25.5541   381
25.5641   354
25.5741   365
25.5841   377
25.5941   375
25.6041   389
25.6141   366
25.6241   350
25.6341   393
25.6441   376
25.6541   399
25.6641   372
25.6741   347
25.6841   375
25.6941   377
25.7041   352
25.7141   373
25.7241   345
25.7341   376
25.7441   361
25.7541   375
25.7641   406
25.7741   360
25.7841   377
25.7941   362
25.8041   368
25.8141   350
25.8241   367
25.8341   347
25.8441   352
25.8541   374
25.8641   379
25.8741   371
25.8841   338
25.8941   351
25.9041   378
25.9141   364
25.9241   368
25.9341   343
25.9441   393
25.9541   355
25.9641   349
25.9741   381
25.9841   342
25.9941   329
26.0041   355
26.0141   373
26.0241   345
26.0341   332
26.0441   395
26.0541   371
26.0641   351
26.0741   351
26.0841   339
26.0941   327
26.1041   378
26.1141   370
26.1241   368
26.1341   338
26.1441   362
26.1541   345
26.1641   362
26.1741   354
26.1841   336
26.1941   326
26.2041   384
26.2141   369
26.2241   362
26.2341   370
26.2441   337
26.2541   353
26.2641   337
26.2741   361
26.2841   362
26.2941   327
26.3041   370
26.3141   372
26.3241   369
26.3341   360
26.3441   333
26.3541   348
26.3641   361
26.3741   358
26.3841   361
26.3941   356
26.4041   355
26.4141   353
26.4241   347
26.4341   354
26.4441   367
26.4541   355
26.4641   363
26.4741   362
26.4841   319
26.4941   346
26.5041   318
26.5141   360
26.5241   347
26.5341   359
26.5441   353
26.5541   362
26.5641   331
26.5741   340
26.5841   340
26.5941   336
26.6041   330
26.6141   343
26.6241   372
26.6341   363
26.6441   357
26.6541   335
26.6641   338
26.6741   343
26.6841   323
26.6941   341
26.7041   362
26.7141   326
26.7241   336
26.7341   351
26.7441   327
26.7541   334
26.7641   322
26.7741   335
26.7841   341
26.7941   326
26.8041   354
26.8141   337
26.8241   312
26.8341   364
26.8441   340
26.8541   319
26.8641   328
26.8741   312
26.8841   333
26.8941   342
26.9041   331
26.9141   307
26.9241   320
26.9341   306
26.9441   351
26.9541   353
26.9641   343
26.9741   324
26.9841   319
26.9941   331
27.0041   352
27.0141   332
27.0241   344
27.0341   361
27.0441   324
27.0541   307
27.0641   333
27.0741   333
27.0841   354
27.0941   346
27.1041   342
27.1141   337
27.1241   345
27.1341   350
27.1441   321
27.1541   335
27.1641   348
27.1741   325
27.1841   371
27.1941   323
27.2041   326
27.2141   299
27.2241   335
27.2341   327
27.2441   319
27.2541   312
27.2641   314
27.2741   298
27.2841   333
27.2941   329
27.3041   329
27.3141   345
27.3241   329
27.3341   346
27.3441   306
27.3541   312
27.3641   318
27.3741   325
27.3841   306
27.3941   302
27.4041   319
27.4141   326
27.4241   307
27.4341   309
27.4441   311
27.4541   320
27.4641   302
27.4741   324
27.4841   300
27.4941   340
27.5041   321
27.5141   296
27.5241   296
27.5341   335
27.5441   330
27.5541   326
27.5641   313
27.5741   315
27.5841   302
27.5941   297
27.6041   302
27.6141   312
27.6241   309
27.6341   338
27.6441   296
27.6541   317
27.6641   361
27.6741   319
27.6841   300
27.6941   332
27.7041   296
27.7141   345
27.7241   315
27.7341   297
27.7441   306
27.7541   281
27.7641   275
27.7741   302
27.7841   319
27.7941   318
27.8041   306
27.8141   313
27.8241   301
27.8341   350
27.8441   275
27.8541   268
27.8641   307
27.8741   319
27.8841   293
27.8941   295
27.9041   314
27.9141   295
27.9241   326
27.9341   275
27.9441   306
27.9541   306
27.9641   299
27.9741   304
27.9841   297
27.9941   333
28.0041   333
28.0141   312
28.0241   334
28.0341   297
28.0441   294
28.0541   288
28.0641   300
28.0741   294
28.0841   309
28.0941   325
28.1041   297
28.1141   270
28.1241   303
28.1341   312
28.1441   301
28.1541   296
28.1641   287
28.1741   264
28.1841   308
28.1941   303
28.2041   325
28.2141   302
28.2241   254
28.2341   280
28.2441   296
28.2541   288
28.2641   291
28.2741   271
28.2841   254
28.2941   266
28.3041   269
28.3141   287
28.3241   267
28.3341   283
28.3441   297
28.3541   299
28.3641   273
28.3741   286
28.3841   273
28.3941   299
28.4041   280
28.4141   290
28.4241   274
28.4341   256
28.4441   284
28.4541   283
28.4641   280
28.4741   293
28.4841   306
28.4941   304
28.5041   259
28.5141   274
28.5241   278
28.5341   293
28.5441   281
28.5541   272
28.5641   286
28.5741   292
28.5841   267
28.5941   308
28.6041   276
28.6141   285
28.6241   289
28.6341   290
28.6441   300
28.6541   286
28.6641   276
28.6741   284
28.6841   287
28.6941   247
28.7041   268
28.7141   261
28.7241   289
28.7341   284
28.7441   261
28.7541   271
28.7641   300
28.7741   255
28.7841   294
28.7941   286
28.8041   283
28.8141   270
28.8241   276
28.8341   293
28.8441   277
28.8541   274
28.8641   273
28.8741   250
28.8841   281
28.8941   287
28.9041   263
28.9141   246
28.9241   265
28.9341   256
28.9441   281
28.9541   268
28.9641   285
28.9741   278
28.9841   262
28.9941   262
29.0041   249
29.0141   255
29.0241   261
29.0341   271
29.0441   228
29.0541   302
29.0641   286
29.0741   252
29.0841   289
29.0941   252
29.1041   250
29.1141   267
29.1241   249
29.1341   254
29.1441   255
29.1541   269
29.1641   285
29.1741   227
29.1841   273
29.1941   280
29.2041   254
29.2141   241
29.2241   279
29.2341   272
29.2441   264
29.2541   240
29.2641   247
29.2741   259
29.2841   263
29.2941   255
29.3041   240
29.3141   243
29.3241   259
29.3341   263
29.3441   245
29.3541   270
29.3641   269
29.3741   270
29.3841   250
29.3941   242
29.4041   280
29.4141   273
29.4241   254
29.4341   232
29.4441   237
29.4541   238
29.4641   250
29.4741   244
29.4841   250
29.4941   264
29.5041   245
29.5141   215
29.5241   241
29.5341   265
29.5441   243
29.5541   258
29.5641   242
29.5741   233
29.5841   272
29.5941   257
29.6041   237
29.6141   251
29.6241   233
29.6341   261
29.6441   247
29.6541   275
29.6641   252
29.6741   231
29.6841   214
29.6941   259
29.7041   282
29.7141   269
29.7241   252
29.7341   241
29.7441   247
29.7541   250
29.7641   232
29.7741   260
29.7841   244
29.7941   233
29.8041   257
29.8141   220
29.8241   247
29.8341   280
29.8441   228
29.8541   246
29.8641   230
29.8741   233
29.8841   224
29.8941   260
29.9041   248
29.9141   207
29.9241   234
29.9341   247
29.9441   255
29.9541   219
29.9641   243
29.9741   237
29.9841   246
29.9941   246
30.0041   237
30.0141   228
30.0241   234
30.0341   235
30.0441   213
30.0541   221
30.0641   242
30.0741   241
30.0841   236
30.0941   216
30.1041   215
30.1141   237
30.1241   217
30.1341   222
30.1441   238
30.1541   211
30.1641   213
30.1741   243
30.1841   225
30.1941   241
30.2041   238
30.2141   218
30.2241   251
30.2341   207
30.2441   236
30.2541   209
30.2641   250
30.2741   223
30.2841   229
30.2941   248
30.3041   239
30.3141   239
30.3241   230
30.3341   216
30.3441   251
30.3541   238
30.3641   209
30.3741   215
30.3841   234
30.3941   228
30.4041   222
30.4141   191
30.4241   212
30.4341   197
30.4441   210
30.4541   224
30.4641   192
30.4741   230
30.4841   238
30.4941   231
30.5041   251
30.5141   209
30.5241   218
30.5341   214
30.5441   209
30.5541   215
30.5641   220
30.5741   220
30.5841   203
30.5941   193
30.6041   210
30.6141   207
30.6241   198
30.6341   225
30.6441   220
30.6541   231
30.6641   219
30.6741   217
30.6841   212
30.6941   225
30.7041   197
30.7141   191
30.7241   239
30.7341   213
30.7441   214
30.7541   222
30.7641   197
30.7741   192
30.7841   202
30.7941   209
30.8041   209
30.8141   200
30.8241   217
30.8341   214
30.8441   201
30.8541   183
30.8641   213
30.8741   208
30.8841   214
30.8941   198
30.9041   203
30.9141   206
30.9241   211
30.9341   211
30.9441   225
30.9541   210
30.9641   217
30.9741   221
30.9841   206
30.9941   181
31.0041   227
31.0141   227
31.0241   209
31.0341   201
31.0441   227
31.0541   209
31.0641   217
31.0741   208
31.0841   209
31.0941   190
31.1041   207
31.1141   222
31.1241   204
31.1341   203
31.1441   193
31.1541   203
31.1641   198
31.1741   191
31.1841   192
31.1941   219
31.2041   204
31.2141   210
31.2241   212
31.2341   203
31.2441   198
31.2541   194
31.2641   212
31.2741   230
31.2841   199
31.2941   200
31.3041   206
31.3141   183
31.3241   192
31.3341   176
31.3441   192
31.3541   201
31.3641   199
31.3741   190
31.3841   209
31.3941   189
31.4041   193
31.4141   198
31.4241   183
31.4341   190
31.4441   173
31.4541   182
31.4641   208
31.4741   219
31.4841   190
31.4941   189
31.5041   201
31.5141   200
31.5241   199
31.5341   221
31.5441   206
31.5541   213
31.5641   197
31.5741   192
31.5841   195
31.5941   200
31.6041   180
31.6141   207
31.6241   175
31.6341   197
31.6441   195
31.6541   178
31.6641   201
31.6741   185
31.6841   181
31.6941   189
31.7041   186
31.7141   190
31.7241   198
31.7341   189
31.7441   209
31.7541   189
31.7641   195
31.7741   194
31.7841   211
31.7941   208
31.8041   216
31.8141   204
31.8241   220
31.8341   204
31.8441   190
31.8541   213
31.8641   189
31.8741   207
31.8841   193
31.8941   188
31.9041   189
31.9141   201
31.9241   195
31.9341   201
31.9441   172
31.9541   177
31.9641   183
31.9741   218
31.9841   160
31.9941   188
32.0041   179
32.0141   201
32.0241   212
32.0341   201
32.0441   186
32.0541   168
32.0641   167
32.0741   191
32.0841   202
32.0941   206
32.1041   189
32.1141   193
32.1241   191
32.1341   174
32.1441   204
32.1541   202
32.1641   212
32.1741   186
32.1841   176
32.1941   179
32.2041   190
32.2141   190
32.2241   186
32.2341   187
32.2441   189
32.2541   204
32.2641   180
32.2741   197
32.2841   185
32.2941   174
32.3041   184
32.3141   159
32.3241   177
32.3341   170
32.3441   199
32.3541   187
32.3641   182
32.3741   173
32.3841   153
32.3941   174
32.4041   170
32.4141   162
32.4241   147
32.4341   146
32.4441   147
32.4541   156
32.4641   149
32.4741   167
32.4841   190
32.4941   149
32.5041   143
32.5141   158
32.5241   160
32.5341   152
32.5441   159
32.5541   153
32.5641   151
32.5741   166
32.5841   183
32.5941   165
32.6041   165
32.6141   151
32.6241   142
32.6341   159
32.6441   139
32.6541   155
32.6641   153
32.6741   149
32.6841   161
32.6941   173
32.7041   157
32.7141   166
32.7241   170
32.7341   172
32.7441   175
32.7541   155
32.7641   166
32.7741   151
32.7841   169
32.7941   145
32.8041   183
32.8141   162
32.8241   187
32.8341   153
32.8441   137
32.8541   146
32.8641   129
32.8741   149
32.8841   134
32.8941   146
32.9041   143
32.9141   139
32.9241   139
32.9341   157
32.9441   137
32.9541   142
32.9641   145
32.9741   150
32.9841   147
32.9941   163
33.0041   148
33.0141   144
33.0241   148
33.0341   155
33.0441   155
33.0541   136
33.0641   142
33.0741   157
33.0841   145
33.0941   152
33.1041   133
33.1141   133
33.1241   138
33.1341   131
33.1441   164
33.1541   173
33.1641   143
33.1741   140
33.1841   129
33.1941   147
33.2041   152
33.2141   149
33.2241   160
33.2341   154
33.2441   141
33.2541   152
33.2641   154
33.2741   150
33.2841   139
33.2941   150
33.3041   162
33.3141   160
33.3241   141
33.3341   135
33.3441   121
33.3541   145
33.3641   133
33.3741   134
33.3841   139
33.3941   138
33.4041   126
33.4141   141
33.4241   139
33.4341   163
33.4441   130
33.4541   146
33.4641   124
33.4741   160
33.4841   137
33.4941   155
33.5041   147
33.5141   119
33.5241   124
33.5341   137
33.5441   149
33.5541   141
33.5641   142
33.5741   125
33.5841   136
33.5941   128
33.6041   146
33.6141   142
33.6241   127
33.6341   123
33.6441   132
33.6541   144
33.6641   144
33.6741   141
33.6841   151
33.6941   130
33.7041   118
33.7141   131
33.7241   138
33.7341   122
33.7441   132
33.7541   121
33.7641   125
33.7741   122
33.7841   134
33.7941   141
33.8041   133
33.8141   141
33.8241   124
33.8341   116
33.8441   145
33.8541   136
33.8641   119
33.8741   134
33.8841   127
33.8941   114
33.9041   127
33.9141   136
33.9241   121
33.9341   113
33.9441   115
33.9541   122
33.9641   121
33.9741   151
33.9841   132
33.9941   116
34.0041   116
34.0141   132
34.0241   122
34.0341   134
34.0441   112
34.0541   129
34.0641   126
34.0741   125
34.0841   133
34.0941   116
34.1041   114
34.1141   107
34.1241   121
34.1341   120
34.1441   104
34.1541   122
34.1641   131
34.1741   117
34.1841   105
34.1941   114
34.2041   119
34.2141   132
34.2241   122
34.2341   127
34.2441   112
34.2541   114
34.2641   104
34.2741   133
34.2841   114
34.2941   132
34.3041   127
34.3141   130
34.3241   110
34.3341   115
34.3441   122
34.3541   136
34.3641   132
34.3741   120
34.3841   119
34.3941   118
34.4041   119
34.4141   102
34.4241   123
34.4341   114
34.4441   113
34.4541   113
34.4641   125
34.4741   112
34.4841   113
34.4941   121
34.5041   118
34.5141   105
34.5241   120
34.5341   110
34.5441   118
34.5541   126
34.5641    99
34.5741   112
34.5841   111
34.5941   117
34.6041   115
34.6141   105
34.6241   112
34.6341   107
34.6441   121
34.6541   117
34.6641   114
34.6741    93
34.6841   112
34.6941   108
34.7041   100
34.7141   109
34.7241   126
34.7341   129
34.7441    98
34.7541   112
34.7641   112
34.7741   126
34.7841   109
34.7941   113
34.8041   107
34.8141    96
34.8241   118
34.8341   105
34.8441   109
34.8541   106
34.8641   114
34.8741   116
34.8841   104
34.8941   104
34.9041   100
34.9141   111
34.9241    92
34.9341   107
34.9441    98
34.9541   103
34.9641   121
34.9741   102
34.9841   103
34.9941   108
35.0041    96
35.0141   114
35.0241   119
35.0341   119
35.0441   106
35.0541    90
35.0641    81
35.0741   113
35.0841   131
35.0941   115
35.1041    95
35.1141   101
35.1241    95
35.1341   104
35.1441    87
35.1541   103
35.1641   100
35.1741    89
35.1841    97
35.1941   103
35.2041    84
35.2141    89
35.2241   102
35.2341    81
35.2441    96
35.2541    92
35.2641   106
35.2741   104
35.2841   105
35.2941   107
35.3041   103
35.3141   109
35.3241    92
35.3341    76
35.3441    95
35.3541    84
35.3641    99
35.3741   109
35.3841    98
35.3941    78
35.4041   101
35.4141   105
35.4241    94
35.4341    97
35.4441   100
35.4541   102
35.4641    97
35.4741    99
35.4841    88
35.4941    82
35.5041    88
35.5141    97
35.5241    92
35.5341    90
35.5441    89
35.5541    93
35.5641    84
35.5741   109
35.5841    92
35.5941    87
35.6041    89
35.6141    74
35.6241    86
35.6341    92
35.6441    75
35.6541    90
35.6641    94
35.6741    90
35.6841    91
35.6941    93
35.7041    94
35.7141    88
35.7241    88
35.7341    85
35.7441    87
35.7541    86
35.7641    67
35.7741    93
35.7841    92
35.7941    98
35.8041    80
35.8141    88
35.8241    82
35.8341    81
35.8441    83
35.8541    80
35.8641    79
35.8741    83
35.8841    77
35.8941    77
35.9041    79
35.9141    83
35.9241    83
35.9341    82
35.9441    81
35.9541    87
35.9641    69
35.9741    78
35.9841    76
35.9941    87
36.0041   104
36.0141    83
36.0241    79
36.0341    92
36.0441    84
36.0541    80
36.0641    79
36.0741    85
36.0841    91
36.0941    71
36.1041    70
36.1141    79
36.1241    78
36.1341    85
36.1441    62
36.1541    87
36.1641    98
36.1741    77
36.1841    81
36.1941    93
36.2041   103
36.2141    74
36.2241    68
36.2341    83
36.2441    78
36.2541    70
36.2641    73
36.2741    89
36.2841    81
36.2941    88
36.3041    75
36.3141    84
36.3241    74
36.3341    92
36.3441    87
36.3541    93
36.3641    73
36.3741    88
36.3841    81
36.3941    80
36.4041    78
36.4141    86
36.4241    93
36.4341    80
36.4441    76
36.4541    70
36.4641    92
36.4741    79
36.4841    74
36.4941    62
36.5041    74
36.5141    87
36.5241    81
36.5341    94
36.5441    75
36.5541    74
36.5641    84
36.5741    78
36.5841    74
36.5941    87
36.6041    76
36.6141    83
36.6241    75
36.6341    68
36.6441    76
36.6541    61
36.6641    84
36.6741    67
36.6841    56
36.6941    68
36.7041    57
36.7141    69
36.7241    80
36.7341    74
36.7441    64
36.7541    69
36.7641    75
36.7741    77
36.7841    78
36.7941    69
36.8041    75
36.8141    67
36.8241    60
36.8341    65
36.8441    74
36.8541    65
36.8641    66
36.8741    64
36.8841    68
36.8941    70
36.9041    59
36.9141    75
36.9241    67
36.9341    86
36.9441    77
36.9541    62
36.9641    69
36.9741    67
36.9841    54
36.9941    60
37.0041    72
37.0141    71
37.0241    54
37.0341    55
37.0441    48
37.0541    68
37.0641    71
37.0741    70
37.0841    63
37.0941    84
37.1041    61
37.1141    62
37.1241    64
37.1341    72
37.1441    72
37.1541    75
37.1641    58
37.1741    72
37.1841    60
37.1941    72
37.2041    69
37.2141    67
37.2241    68
37.2341    56
37.2441    61
37.2541    64
37.2641    57
37.2741    67
37.2841    63
37.2941    53
37.3041    60
37.3141    61
37.3241    75
37.3341    75
37.3441    73
37.3541    66
37.3641    72
37.3741    69
37.3841    52
37.3941    59
37.4041    54
37.4141    65
37.4241    60
37.4341    80
37.4441    68
37.4541    60
37.4641    66
37.4741    58
37.4841    71
37.4941    60
37.5041    71
37.5141    52
37.5241    60
37.5341    48
37.5441    74
37.5541    65
37.5641    61
37.5741    66
37.5841    51
37.5941    47
37.6041    70
37.6141    54
37.6241    66
37.6341    42
37.6441    56
37.6541    50
37.6641    59
37.6741    44
37.6841    60
37.6941    66
37.7041    60
37.7141    63
37.7241    60
37.7341    49
37.7441    57
37.7541    68
37.7641    67
37.7741    59
37.7841    44
37.7941    64
37.8041    46
37.8141    56
37.8241    42
37.8341    47
37.8441    45
37.8541    55
37.8641    49
37.8741    80
37.8841    64
37.8941    56
37.9041    60
37.9141    56
37.9241    61
37.9341    61
37.9441    60
37.9541    50
37.9641    40
37.9741    51
37.9841    61
37.9941    51
38.0041    49
38.0141    45
38.0241    50
38.0341    42
38.0441    58
38.0541    62
38.0641    47
38.0741    57
38.0841    49
38.0941    48
38.1041    57
38.1141    33
38.1241    54
38.1341    60
38.1441    49
38.1541    52
38.1641    46
38.1741    37
38.1841    55
38.1941    30
38.2041    52
38.2141    57
38.2241    51
38.2341    42
38.2441    51
38.2541    46
38.2641    49
38.2741    43
38.2841    43
38.2941    52
38.3041    40
38.3141    59
38.3241    47
38.3341    46
38.3441    38
38.3541    38
38.3641    43
38.3741    37
38.3841    45
38.3941    44
38.4041    34
38.4141    39
38.4241    52
38.4341    47
38.4441    49
38.4541    52
38.4641    47
38.4741    48
38.4841    45
38.4941    48
38.5041    53
38.5141    35
38.5241    28
38.5341    44
38.5441    43
38.5541    38
38.5641    38
38.5741    42
38.5841    53
38.5941    50
38.6041    44
38.6141    32
38.6241    43
38.6341    40
38.6441    45
38.6541    45
38.6641    30
38.6741    51
38.6841    41
38.6941    35
38.7041    39
38.7141    46
38.7241    53
38.7341    43
38.7441    37
38.7541    39
38.7641    37
38.7741    48
38.7841    46
38.7941    39
38.8041    36
38.8141    38
38.8241    43
38.8341    32
38.8441    38
38.8541    35
38.8641    40
38.8741    38
38.8841    37
38.8941    38
38.9041    34
38.9141    41
38.9241    38
38.9341    33
38.9441    44
38.9541    33
38.9641    46
38.9741    35
38.9841    34
38.9941    43
39.0041    34
39.0141    33
39.0241    40
39.0341    36
39.0441    34
39.0541    32
39.0641    36
39.0741    42
39.0841    39
39.0941    35
39.1041    35
39.1141    33
39.1241    31
39.1341    35
39.1441    31
39.1541    41
39.1641    28
39.1741    36
39.1841    37
39.1941    34
39.2041    34
39.2141    36
39.2241    28
39.2341    38
39.2441    39
39.2541    39
39.2641    35
39.2741    28
39.2841    41
39.2941    32
39.3041    44
39.3141    42
39.3241    45
39.3341    31
39.3441    43
39.3541    37
39.3641    41
39.3741    41
39.3841    43
39.3941    33
39.4041    24
39.4141    32
39.4241    38
39.4341    34
39.4441    32
39.4541    32
39.4641    31
39.4741    36
39.4841    25
39.4941    34
39.5041    30
39.5141    33
39.5241    37
39.5341    22
39.5441    36
39.5541    28
39.5641    35
39.5741    28
39.5841    38
39.5941    22
39.6041    43
39.6141    35
39.6241    35
39.6341    36
39.6441    33
39.6541    22
39.6641    37
39.6741    32
39.6841    34
39.6941    29
39.7041    28
39.7141    39
39.7241    27
39.7341    26
39.7441    35
39.7541    31
39.7641    22
39.7741    31
39.7841    35
39.7941    26
39.8041    32
39.8141    24
39.8241    26
39.8341    18
39.8441    24
39.8541    31
39.8641    36
39.8741    33
39.8841    21
39.8941    27
39.9041    27
39.9141    21
39.9241    30
39.9341    30
39.9441    28
39.9541    29
39.9641    25
39.9741    24
39.9841    25
