Bruker Nano GmbH Berlin, Germany
Esprit 1.9

Date: 4/21/2021 1:40:15 PM
Real time: 22357
Life time: 20945
Pulse density: 93567


Detector type: XFlash 430
Window type: Custom type
Detector thickness: 0.45
Si dead layer:0.029

Calibration, lin.: 10
Calibration, abs.: -955.9
Mn FWHM: 137.05
Fano factor: 0.121
Channels: 4095

Energy Counts
-0.9559     0
-0.9459     0
-0.9359     0
-0.9259     0
-0.9159     0
-0.9059     0
-0.8959     0
-0.8859     0
-0.8759     0
-0.8659     0
-0.8559     0
-0.8459     0
-0.8359     0
-0.8259     0
-0.8159     0
-0.8059     0
-0.7959     0
-0.7859     0
-0.7759     0
-0.7659     0
-0.7559     0
-0.7459     0
-0.7359     0
-0.7259     0
-0.7159     0
-0.7059     0
-0.6959     0
-0.6859     0
-0.6759     0
-0.6659     0
-0.6559     0
-0.6459     0
-0.6359     0
-0.6259     0
-0.6159     0
-0.6059     0
-0.5959     0
-0.5859     0
-0.5759     0
-0.5659     0
-0.5559     0
-0.5459     0
-0.5359     0
-0.5259     0
-0.5159     0
-0.5059     0
-0.4959     0
-0.4859     0
-0.4759     0
-0.4659     0
-0.4559     0
-0.4459     0
-0.4359     0
-0.4259     0
-0.4159     0
-0.4059     0
-0.3959     0
-0.3859     0
-0.3759     0
-0.3659     0
-0.3559     0
-0.3459     0
-0.3359     0
-0.3259     0
-0.3159     0
-0.3059     0
-0.2959     0
-0.2859     0
-0.2759     0
-0.2659     0
-0.2559     0
-0.2459     0
-0.2359     0
-0.2259     0
-0.2159     0
-0.2059     0
-0.1959     0
-0.1859     0
-0.1759     0
-0.1659     0
-0.1559     0
-0.1459     0
-0.1359     1
-0.1259     2
-0.1159     1
-0.1059    10
-0.0959    60
-0.0859   241
-0.0759   803
-0.0659  2416
-0.0559  6124
-0.0459 13214
-0.0359 24982
-0.0259 39769
-0.0159 54853
-0.0059 63849
 0.0041 64517
 0.0141 55556
 0.0241 41305
 0.0341 25955
 0.0441 14182
 0.0541  6547
 0.0641  2603
 0.0741   864
 0.0841   253
 0.0941    65
 0.1041    38
 0.1141    15
 0.1241     4
 0.1341     6
 0.1441     4
 0.1541     7
 0.1641     3
 0.1741     2
 0.1841   198
 0.1941   389
 0.2041   325
 0.2141   314
 0.2241   304
 0.2341   307
 0.2441   309
 0.2541   321
 0.2641   342
 0.2741   331
 0.2841   307
 0.2941   278
 0.3041   287
 0.3141   293
 0.3241   297
 0.3341   315
 0.3441   315
 0.3541   295
 0.3641   307
 0.3741   293
 0.3841   313
 0.3941   275
 0.4041   276
 0.4141   288
 0.4241   305
 0.4341   307
 0.4441   288
 0.4541   287
 0.4641   281
 0.4741   272
 0.4841   284
 0.4941   281
 0.5041   270
 0.5141   266
 0.5241   263
 0.5341   265
 0.5441   289
 0.5541   283
 0.5641   281
 0.5741   277
 0.5841   246
 0.5941   242
 0.6041   265
 0.6141   253
 0.6241   250
 0.6341   250
 0.6441   242
 0.6541   237
 0.6641   235
 0.6741   234
 0.6841   233
 0.6941   235
 0.7041   227
 0.7141   219
 0.7241   246
 0.7341   256
 0.7441   227
 0.7541   226
 0.7641   238
 0.7741   230
 0.7841   219
 0.7941   228
 0.8041   224
 0.8141   215
 0.8241   202
 0.8341   226
 0.8441   226
 0.8541   199
 0.8641   209
 0.8741   221
 0.8841   207
 0.8941   212
 0.9041   216
 0.9141   209
 0.9241   216
 0.9341   206
 0.9441   191
 0.9541   214
 0.9641   226
 0.9741   209
 0.9841   209
 0.9941   232
 1.0041   219
 1.0141   213
 1.0241   201
 1.0341   193
 1.0441   204
 1.0541   205
 1.0641   198
 1.0741   192
 1.0841   190
 1.0941   180
 1.1041   191
 1.1141   204
 1.1241   208
 1.1341   211
 1.1441   207
 1.1541   190
 1.1641   200
 1.1741   212
 1.1841   198
 1.1941   196
 1.2041   189
 1.2141   184
 1.2241   188
 1.2341   195
 1.2441   187
 1.2541   192
 1.2641   165
 1.2741   213
 1.2841   216
 1.2941   184
 1.3041   164
 1.3141   175
 1.3241   172
 1.3341   199
 1.3441   176
 1.3541   196
 1.3641   170
 1.3741   170
 1.3841   170
 1.3941   184
 1.4041   160
 1.4141   164
 1.4241   191
 1.4341   180
 1.4441   162
 1.4541   199
 1.4641   187
 1.4741   199
 1.4841   195
 1.4941   193
 1.5041   172
 1.5141   175
 1.5241   163
 1.5341   186
 1.5441   166
 1.5541   171
 1.5641   167
 1.5741   173
 1.5841   170
 1.5941   175
 1.6041   190
 1.6141   182
 1.6241   174
 1.6341   189
 1.6441   195
 1.6541   247
 1.6641   292
 1.6741   319
 1.6841   406
 1.6941   487
 1.7041   604
 1.7141   666
 1.7241   823
 1.7341   817
 1.7441   809
 1.7541   780
 1.7641   663
 1.7741   614
 1.7841   534
 1.7941   417
 1.8041   358
 1.8141   291
 1.8241   269
 1.8341   280
 1.8441   240
 1.8541   207
 1.8641   226
 1.8741   190
 1.8841   188
 1.8941   201
 1.9041   206
 1.9141   163
 1.9241   186
 1.9341   178
 1.9441   196
 1.9541   221
 1.9641   203
 1.9741   218
 1.9841   214
 1.9941   222
 2.0041   218
 2.0141   232
 2.0241   253
 2.0341   248
 2.0441   209
 2.0541   194
 2.0641   171
 2.0741   154
 2.0841   186
 2.0941   180
 2.1041   203
 2.1141   175
 2.1241   157
 2.1341   181
 2.1441   172
 2.1541   165
 2.1641   148
 2.1741   175
 2.1841   168
 2.1941   158
 2.2041   153
 2.2141   155
 2.2241   133
 2.2341   156
 2.2441   170
 2.2541   154
 2.2641   155
 2.2741   174
 2.2841   149
 2.2941   149
 2.3041   146
 2.3141   152
 2.3241   162
 2.3341   152
 2.3441   154
 2.3541   154
 2.3641   134
 2.3741   144
 2.3841   131
 2.3941   150
 2.4041   141
 2.4141   151
 2.4241   142
 2.4341   135
 2.4441   130
 2.4541   145
 2.4641   110
 2.4741   116
 2.4841   137
 2.4941   135
 2.5041   144
 2.5141   135
 2.5241   135
 2.5341   153
 2.5441   139
 2.5541   137
 2.5641   152
 2.5741   165
 2.5841   136
 2.5941   147
 2.6041   149
 2.6141   138
 2.6241   146
 2.6341   137
 2.6441   130
 2.6541   132
 2.6641   123
 2.6741   123
 2.6841   143
 2.6941   133
 2.7041   108
 2.7141   108
 2.7241   124
 2.7341   108
 2.7441   150
 2.7541   110
 2.7641   124
 2.7741   137
 2.7841   156
 2.7941   152
 2.8041   137
 2.8141   143
 2.8241   125
 2.8341   154
 2.8441   136
 2.8541   131
 2.8641   152
 2.8741   144
 2.8841   122
 2.8941   135
 2.9041   127
 2.9141   129
 2.9241   127
 2.9341   140
 2.9441   126
 2.9541   118
 2.9641   148
 2.9741   107
 2.9841   108
 2.9941   136
 3.0041   134
 3.0141   113
 3.0241    96
 3.0341   141
 3.0441   119
 3.0541   108
 3.0641   117
 3.0741   113
 3.0841   116
 3.0941   109
 3.1041   108
 3.1141   116
 3.1241   112
 3.1341   109
 3.1441   122
 3.1541   128
 3.1641   105
 3.1741   123
 3.1841   122
 3.1941   119
 3.2041   117
 3.2141   136
 3.2241   143
 3.2341   152
 3.2441   145
 3.2541   190
 3.2641   197
 3.2741   229
 3.2841   253
 3.2941   276
 3.3041   295
 3.3141   287
 3.3241   303
 3.3341   269
 3.3441   262
 3.3541   186
 3.3641   209
 3.3741   199
 3.3841   160
 3.3941   146
 3.4041   122
 3.4141   115
 3.4241   106
 3.4341   125
 3.4441    99
 3.4541   117
 3.4641    90
 3.4741   122
 3.4841   124
 3.4941   118
 3.5041   134
 3.5141   170
 3.5241   153
 3.5341   168
 3.5441   225
 3.5541   270
 3.5641   324
 3.5741   451
 3.5841   628
 3.5941   914
 3.6041  1195
 3.6141  1640
 3.6241  2218
 3.6341  2734
 3.6441  3366
 3.6541  4066
 3.6641  4679
 3.6741  5019
 3.6841  5172
 3.6941  5125
 3.7041  4921
 3.7141  4658
 3.7241  4239
 3.7341  3559
 3.7441  2773
 3.7541  2297
 3.7641  1672
 3.7741  1292
 3.7841   871
 3.7941   578
 3.8041   439
 3.8141   292
 3.8241   220
 3.8341   161
 3.8441   135
 3.8541   129
 3.8641   156
 3.8741   135
 3.8841   163
 3.8941   186
 3.9041   217
 3.9141   268
 3.9241   353
 3.9341   440
 3.9441   481
 3.9541   597
 3.9641   710
 3.9741   847
 3.9841   961
 3.9941  1038
 4.0041  1025
 4.0141  1101
 4.0241  1095
 4.0341   992
 4.0441   903
 4.0541   803
 4.0641   699
 4.0741   584
 4.0841   438
 4.0941   363
 4.1041   295
 4.1141   214
 4.1241   165
 4.1341   149
 4.1441   112
 4.1541    97
 4.1641    92
 4.1741    78
 4.1841    73
 4.1941    84
 4.2041    73
 4.2141    77
 4.2241    86
 4.2341    71
 4.2441    77
 4.2541    57
 4.2641    72
 4.2741    66
 4.2841    65
 4.2941    73
 4.3041    80
 4.3141    83
 4.3241    72
 4.3341    85
 4.3441    91
 4.3541    86
 4.3641   101
 4.3741    86
 4.3841    81
 4.3941   119
 4.4041   147
 4.4141   165
 4.4241   213
 4.4341   251
 4.4441   254
 4.4541   295
 4.4641   350
 4.4741   405
 4.4841   414
 4.4941   457
 4.5041   460
 4.5141   482
 4.5241   424
 4.5341   393
 4.5441   358
 4.5541   339
 4.5641   281
 4.5741   254
 4.5841   203
 4.5941   178
 4.6041   139
 4.6141   121
 4.6241   132
 4.6341   131
 4.6441   135
 4.6541   119
 4.6641   100
 4.6741    96
 4.6841    79
 4.6941    81
 4.7041    75
 4.7141    87
 4.7241    92
 4.7341    87
 4.7441    93
 4.7541   101
 4.7641    95
 4.7741    99
 4.7841   109
 4.7941    97
 4.8041   109
 4.8141   105
 4.8241   120
 4.8341   107
 4.8441   121
 4.8541   140
 4.8641   140
 4.8741   152
 4.8841   166
 4.8941   162
 4.9041   165
 4.9141   146
 4.9241   189
 4.9341   178
 4.9441   151
 4.9541   159
 4.9641   166
 4.9741   145
 4.9841   144
 4.9941   135
 5.0041   134
 5.0141   102
 5.0241   100
 5.0341    98
 5.0441   119
 5.0541    98
 5.0641   108
 5.0741    92
 5.0841    90
 5.0941   104
 5.1041    98
 5.1141    82
 5.1241   110
 5.1341    94
 5.1441    82
 5.1541   110
 5.1641    86
 5.1741   104
 5.1841   109
 5.1941    98
 5.2041   104
 5.2141    99
 5.2241   112
 5.2341   119
 5.2441    94
 5.2541    80
 5.2641   113
 5.2741    89
 5.2841    89
 5.2941   123
 5.3041   119
 5.3141   103
 5.3241   116
 5.3341   114
 5.3441   140
 5.3541   123
 5.3641   142
 5.3741   129
 5.3841   150
 5.3941   161
 5.4041   162
 5.4141   136
 5.4241   136
 5.4341   141
 5.4441   136
 5.4541   152
 5.4641   142
 5.4741   134
 5.4841   137
 5.4941   126
 5.5041   104
 5.5141   128
 5.5241   102
 5.5341   115
 5.5441   107
 5.5541   118
 5.5641   112
 5.5741   106
 5.5841   115
 5.5941    89
 5.6041   100
 5.6141    94
 5.6241   110
 5.6341    90
 5.6441   102
 5.6541   100
 5.6641   113
 5.6741   112
 5.6841   121
 5.6941    95
 5.7041   105
 5.7141   128
 5.7241   102
 5.7341   131
 5.7441   116
 5.7541   121
 5.7641   141
 5.7741   126
 5.7841   154
 5.7941   201
 5.8041   202
 5.8141   259
 5.8241   280
 5.8341   306
 5.8441   350
 5.8541   428
 5.8641   378
 5.8741   436
 5.8841   480
 5.8941   430
 5.9041   463
 5.9141   441
 5.9241   440
 5.9341   415
 5.9441   354
 5.9541   307
 5.9641   278
 5.9741   232
 5.9841   233
 5.9941   180
 6.0041   183
 6.0141   155
 6.0241   139
 6.0341   139
 6.0441   131
 6.0541   130
 6.0641   167
 6.0741   137
 6.0841   126
 6.0941   135
 6.1041   132
 6.1141   154
 6.1241   155
 6.1341   152
 6.1441   166
 6.1541   168
 6.1641   174
 6.1741   203
 6.1841   247
 6.1941   282
 6.2041   311
 6.2141   432
 6.2241   521
 6.2341   738
 6.2441  1019
 6.2541  1401
 6.2641  1950
 6.2741  2714
 6.2841  3560
 6.2941  4804
 6.3041  6124
 6.3141  7878
 6.3241  9876
 6.3341 11544
 6.3441 13910
 6.3541 15540
 6.3641 17295
 6.3741 18595
 6.3841 19851
 6.3941 20465
 6.4041 20476
 6.4141 19692
 6.4241 18528
 6.4341 16913
 6.4441 15265
 6.4541 13409
 6.4641 11336
 6.4741  9247
 6.4841  7567
 6.4941  5860
 6.5041  4464
 6.5141  3368
 6.5241  2359
 6.5341  1695
 6.5441  1234
 6.5541   886
 6.5641   601
 6.5741   481
 6.5841   355
 6.5941   258
 6.6041   231
 6.6141   212
 6.6241   179
 6.6341   178
 6.6441   201
 6.6541   164
 6.6641   147
 6.6741   157
 6.6841   171
 6.6941   181
 6.7041   188
 6.7141   185
 6.7241   170
 6.7341   175
 6.7441   189
 6.7541   193
 6.7641   153
 6.7741   174
 6.7841   201
 6.7941   219
 6.8041   200
 6.8141   199
 6.8241   221
 6.8341   219
 6.8441   259
 6.8541   282
 6.8641   271
 6.8741   325
 6.8841   334
 6.8941   408
 6.9041   456
 6.9141   584
 6.9241   689
 6.9341   845
 6.9441  1046
 6.9541  1224
 6.9641  1528
 6.9741  1700
 6.9841  2106
 6.9941  2404
 7.0041  2590
 7.0141  2953
 7.0241  3179
 7.0341  3450
 7.0441  3511
 7.0541  3543
 7.0641  3431
 7.0741  3421
 7.0841  3253
 7.0941  2999
 7.1041  2656
 7.1141  2370
 7.1241  2060
 7.1341  1739
 7.1441  1426
 7.1541  1150
 7.1641   954
 7.1741   786
 7.1841   604
 7.1941   530
 7.2041   443
 7.2141   363
 7.2241   317
 7.2341   275
 7.2441   259
 7.2541   227
 7.2641   229
 7.2741   263
 7.2841   232
 7.2941   232
 7.3041   236
 7.3141   235
 7.3241   246
 7.3341   225
 7.3441   294
 7.3541   263
 7.3641   297
 7.3741   290
 7.3841   311
 7.3941   304
 7.4041   337
 7.4141   356
 7.4241   329
 7.4341   338
 7.4441   345
 7.4541   333
 7.4641   322
 7.4741   325
 7.4841   330
 7.4941   307
 7.5041   314
 7.5141   265
 7.5241   255
 7.5341   259
 7.5441   228
 7.5541   208
 7.5641   207
 7.5741   227
 7.5841   217
 7.5941   225
 7.6041   223
 7.6141   212
 7.6241   212
 7.6341   226
 7.6441   218
 7.6541   238
 7.6641   244
 7.6741   251
 7.6841   251
 7.6941   220
 7.7041   258
 7.7141   221
 7.7241   265
 7.7341   265
 7.7441   254
 7.7541   242
 7.7641   262
 7.7741   271
 7.7841   265
 7.7941   282
 7.8041   298
 7.8141   279
 7.8241   308
 7.8341   303
 7.8441   276
 7.8541   292
 7.8641   306
 7.8741   333
 7.8841   348
 7.8941   335
 7.9041   332
 7.9141   395
 7.9241   417
 7.9341   416
 7.9441   463
 7.9541   487
 7.9641   511
 7.9741   528
 7.9841   625
 7.9941   639
 8.0041   655
 8.0141   716
 8.0241   817
 8.0341   859
 8.0441   871
 8.0541   952
 8.0641  1075
 8.0741  1103
 8.0841  1121
 8.0941  1200
 8.1041  1181
 8.1141  1293
 8.1241  1354
 8.1341  1375
 8.1441  1411
 8.1541  1427
 8.1641  1453
 8.1741  1552
 8.1841  1563
 8.1941  1583
 8.2041  1529
 8.2141  1517
 8.2241  1563
 8.2341  1621
 8.2441  1634
 8.2541  1663
 8.2641  1770
 8.2741  1889
 8.2841  1975
 8.2941  2139
 8.3041  2295
 8.3141  2475
 8.3241  2527
 8.3341  2805
 8.3441  2929
 8.3541  3186
 8.3641  3250
 8.3741  3425
 8.3841  3460
 8.3941  3465
 8.4041  3313
 8.4141  3174
 8.4241  3079
 8.4341  2868
 8.4441  2628
 8.4541  2326
 8.4641  2119
 8.4741  1817
 8.4841  1590
 8.4941  1365
 8.5041  1154
 8.5141   980
 8.5241   815
 8.5341   694
 8.5441   596
 8.5541   534
 8.5641   477
 8.5741   469
 8.5841   461
 8.5941   470
 8.6041   433
 8.6141   410
 8.6241   423
 8.6341   422
 8.6441   403
 8.6541   428
 8.6641   432
 8.6741   429
 8.6841   404
 8.6941   425
 8.7041   430
 8.7141   409
 8.7241   399
 8.7341   387
 8.7441   396
 8.7541   359
 8.7641   366
 8.7741   356
 8.7841   355
 8.7941   328
 8.8041   311
 8.8141   342
 8.8241   339
 8.8341   354
 8.8441   358
 8.8541   343
 8.8641   304
 8.8741   344
 8.8841   350
 8.8941   375
 8.9041   325
 8.9141   330
 8.9241   362
 8.9341   373
 8.9441   390
 8.9541   393
 8.9641   384
 8.9741   397
 8.9841   383
 8.9941   388
 9.0041   373
 9.0141   417
 9.0241   419
 9.0341   444
 9.0441   432
 9.0541   428
 9.0641   431
 9.0741   505
 9.0841   514
 9.0941   501
 9.1041   511
 9.1141   544
 9.1241   540
 9.1341   569
 9.1441   598
 9.1541   624
 9.1641   628
 9.1741   675
 9.1841   702
 9.1941   747
 9.2041   811
 9.2141   841
 9.2241   844
 9.2341   845
 9.2441   918
 9.2541  1002
 9.2641  1007
 9.2741  1083
 9.2841  1045
 9.2941  1152
 9.3041  1184
 9.3141  1249
 9.3241  1285
 9.3341  1345
 9.3441  1356
 9.3541  1380
 9.3641  1446
 9.3741  1364
 9.3841  1410
 9.3941  1437
 9.4041  1459
 9.4141  1458
 9.4241  1496
 9.4341  1502
 9.4441  1563
 9.4541  1531
 9.4641  1605
 9.4741  1610
 9.4841  1683
 9.4941  1655
 9.5041  1700
 9.5141  1713
 9.5241  1820
 9.5341  1847
 9.5441  1869
 9.5541  2012
 9.5641  2120
 9.5741  2204
 9.5841  2364
 9.5941  2437
 9.6041  2634
 9.6141  2673
 9.6241  2871
 9.6341  2929
 9.6441  3070
 9.6541  3117
 9.6641  3118
 9.6741  3145
 9.6841  3026
 9.6941  2984
 9.7041  2917
 9.7141  2775
 9.7241  2553
 9.7341  2420
 9.7441  2248
 9.7541  2041
 9.7641  1971
 9.7741  1811
 9.7841  1647
 9.7941  1582
 9.8041  1391
 9.8141  1329
 9.8241  1278
 9.8341  1237
 9.8441  1243
 9.8541  1281
 9.8641  1283
 9.8741  1220
 9.8841  1249
 9.8941  1288
 9.9041  1342
 9.9141  1350
 9.9241  1354
 9.9341  1333
 9.9441  1376
 9.9541  1413
 9.9641  1350
 9.9741  1285
 9.9841  1267
 9.9941  1210
10.0041  1130
10.0141  1040
10.0241  1004
10.0341   932
10.0441   807
10.0541   741
10.0641   670
10.0741   600
10.0841   532
10.0941   475
10.1041   453
10.1141   386
10.1241   351
10.1341   323
10.1441   307
10.1541   304
10.1641   274
10.1741   258
10.1841   265
10.1941   243
10.2041   243
10.2141   253
10.2241   224
10.2341   229
10.2441   225
10.2541   204
10.2641   211
10.2741   190
10.2841   188
10.2941   205
10.3041   172
10.3141   187
10.3241   209
10.3341   178
10.3441   172
10.3541   172
10.3641   167
10.3741   185
10.3841   192
10.3941   171
10.4041   177
10.4141   166
10.4241   159
10.4341   175
10.4441   188
10.4541   208
10.4641   193
10.4741   210
10.4841   186
10.4941   198
10.5041   214
10.5141   211
10.5241   202
10.5341   212
10.5441   219
10.5541   211
10.5641   228
10.5741   217
10.5841   205
10.5941   205
10.6041   202
10.6141   215
10.6241   222
10.6341   225
10.6441   209
10.6541   239
10.6641   229
10.6741   234
10.6841   222
10.6941   235
10.7041   245
10.7141   227
10.7241   243
10.7341   249
10.7441   265
10.7541   250
10.7641   243
10.7741   267
10.7841   286
10.7941   282
10.8041   286
10.8141   278
10.8241   281
10.8341   319
10.8441   315
10.8541   323
10.8641   346
10.8741   355
10.8841   335
10.8941   332
10.9041   329
10.9141   311
10.9241   312
10.9341   309
10.9441   312
10.9541   332
10.9641   322
10.9741   328
10.9841   307
10.9941   312
11.0041   287
11.0141   309
11.0241   301
11.0341   274
11.0441   293
11.0541   301
11.0641   287
11.0741   319
11.0841   306
11.0941   293
11.1041   304
11.1141   327
11.1241   309
11.1341   324
11.1441   320
11.1541   304
11.1641   325
11.1741   347
11.1841   371
11.1941   365
11.2041   383
11.2141   399
11.2241   423
11.2341   407
11.2441   431
11.2541   446
11.2641   483
11.2741   493
11.2841   493
11.2941   483
11.3041   479
11.3141   461
11.3241   440
11.3341   430
11.3441   431
11.3541   409
11.3641   357
11.3741   328
11.3841   324
11.3941   308
11.4041   301
11.4141   283
11.4241   282
11.4341   267
11.4441   270
11.4541   249
11.4641   230
11.4741   237
11.4841   239
11.4941   246
11.5041   244
11.5141   235
11.5241   226
11.5341   246
11.5441   250
11.5541   244
11.5641   244
11.5741   244
11.5841   238
11.5941   258
11.6041   248
11.6141   274
11.6241   260
11.6341   238
11.6441   255
11.6541   249
11.6641   256
11.6741   259
11.6841   236
11.6941   236
11.7041   246
11.7141   238
11.7241   213
11.7341   199
11.7441   208
11.7541   215
11.7641   201
11.7741   190
11.7841   188
11.7941   190
11.8041   196
11.8141   192
11.8241   174
11.8341   183
11.8441   189
11.8541   186
11.8641   179
11.8741   169
11.8841   170
11.8941   176
11.9041   168
11.9141   183
11.9241   198
11.9341   176
11.9441   176
11.9541   201
11.9641   192
11.9741   183
11.9841   182
11.9941   186
12.0041   197
12.0141   192
12.0241   200
12.0341   193
12.0441   198
12.0541   203
12.0641   204
12.0741   194
12.0841   180
12.0941   193
12.1041   188
12.1141   185
12.1241   188
12.1341   187
12.1441   166
12.1541   168
12.1641   177
12.1741   169
12.1841   179
12.1941   193
12.2041   179
12.2141   172
12.2241   175
12.2341   165
12.2441   152
12.2541   176
12.2641   182
12.2741   164
12.2841   185
12.2941   186
12.3041   172
12.3141   182
12.3241   182
12.3341   183
12.3441   180
12.3541   168
12.3641   180
12.3741   189
12.3841   187
12.3941   186
12.4041   182
12.4141   191
12.4241   196
12.4341   200
12.4441   193
12.4541   195
12.4641   205
12.4741   196
12.4841   184
12.4941   201
12.5041   208
12.5141   196
12.5241   200
12.5341   209
12.5441   197
12.5541   193
12.5641   195
12.5741   203
12.5841   213
12.5941   213
12.6041   198
12.6141   191
12.6241   211
12.6341   210
12.6441   203
12.6541   189
12.6641   199
12.6741   201
12.6841   178
12.6941   182
12.7041   192
12.7141   209
12.7241   202
12.7341   203
12.7441   202
12.7541   192
12.7641   192
12.7741   204
12.7841   214
12.7941   214
12.8041   213
12.8141   210
12.8241   203
12.8341   201
12.8441   206
12.8541   210
12.8641   215
12.8741   217
12.8841   210
12.8941   202
12.9041   207
12.9141   218
12.9241   225
12.9341   235
12.9441   242
12.9541   235
12.9641   217
12.9741   204
12.9841   209
12.9941   225
13.0041   231
13.0141   226
13.0241   226
13.0341   232
13.0441   235
13.0541   232
13.0641   230
13.0741   232
13.0841   235
13.0941   234
13.1041   229
13.1141   224
13.1241   219
13.1341   214
13.1441   230
13.1541   245
13.1641   256
13.1741   246
13.1841   231
13.1941   242
13.2041   253
13.2141   264
13.2241   259
13.2341   244
13.2441   261
13.2541   271
13.2641   279
13.2741   284
13.2841   287
13.2941   298
13.3041   308
13.3141   314
13.3241   342
13.3341   341
13.3441   312
13.3541   316
13.3641   362
13.3741   377
13.3841   358
13.3941   380
13.4041   392
13.4141   374
13.4241   348
13.4341   339
13.4441   332
13.4541   323
13.4641   327
13.4741   334
13.4841   329
13.4941   301
13.5041   290
13.5141   291
13.5241   292
13.5341   300
13.5441   289
13.5541   268
13.5641   265
13.5741   264
13.5841   265
13.5941   273
13.6041   275
13.6141   264
13.6241   260
13.6341   265
13.6441   264
13.6541   260
13.6641   261
13.6741   276
13.6841   275
13.6941   253
13.7041   238
13.7141   243
13.7241   258
13.7341   275
13.7441   266
13.7541   274
13.7641   281
13.7741   266
13.7841   281
13.7941   291
13.8041   283
13.8141   290
13.8241   295
13.8341   303
13.8441   300
13.8541   288
13.8641   299
13.8741   288
13.8841   268
13.8941   282
13.9041   299
13.9141   288
13.9241   304
13.9341   317
13.9441   321
13.9541   354
13.9641   370
13.9741   375
13.9841   391
13.9941   400
14.0041   431
14.0141   470
14.0241   474
14.0341   492
14.0441   528
14.0541   544
14.0641   571
14.0741   618
14.0841   666
14.0941   669
14.1041   653
14.1141   682
14.1241   717
14.1341   737
14.1441   726
14.1541   700
14.1641   691
14.1741   695
14.1841   671
14.1941   642
14.2041   620
14.2141   611
14.2241   608
14.2341   568
14.2441   532
14.2541   514
14.2641   464
14.2741   453
14.2841   464
14.2941   423
14.3041   407
14.3141   407
14.3241   415
14.3341   381
14.3441   356
14.3541   346
14.3641   330
14.3741   349
14.3841   352
14.3941   320
14.4041   322
14.4141   351
14.4241   341
14.4341   327
14.4441   320
14.4541   342
14.4641   367
14.4741   344
14.4841   328
14.4941   341
14.5041   331
14.5141   334
14.5241   362
14.5341   351
14.5441   338
14.5541   341
14.5641   334
14.5741   333
14.5841   346
14.5941   350
14.6041   358
14.6141   344
14.6241   334
14.6341   333
14.6441   358
14.6541   352
14.6641   330
14.6741   338
14.6841   340
14.6941   356
14.7041   366
14.7141   355
14.7241   343
14.7341   371
14.7441   375
14.7541   354
14.7641   356
14.7741   390
14.7841   380
14.7941   375
14.8041   385
14.8141   380
14.8241   366
14.8341   385
14.8441   410
14.8541   396
14.8641   406
14.8741   406
14.8841   390
14.8941   406
14.9041   424
14.9141   429
14.9241   411
14.9341   402
14.9441   417
14.9541   421
14.9641   432
14.9741   422
14.9841   440
14.9941   434
15.0041   435
15.0141   432
15.0241   420
15.0341   400
15.0441   399
15.0541   387
15.0641   375
15.0741   398
15.0841   400
15.0941   381
15.1041   404
15.1141   430
15.1241   417
15.1341   409
15.1441   411
15.1541   389
15.1641   394
15.1741   383
15.1841   390
15.1941   401
15.2041   391
15.2141   405
15.2241   393
15.2341   389
15.2441   400
15.2541   399
15.2641   396
15.2741   406
15.2841   400
15.2941   378
15.3041   389
15.3141   388
15.3241   392
15.3341   411
15.3441   425
15.3541   412
15.3641   405
15.3741   431
15.3841   425
15.3941   408
15.4041   401
15.4141   413
15.4241   422
15.4341   409
15.4441   410
15.4541   431
15.4641   429
15.4741   400
15.4841   436
15.4941   430
15.5041   419
15.5141   425
15.5241   450
15.5341   453
15.5441   461
15.5541   473
15.5641   490
15.5741   506
15.5841   499
15.5941   500
15.6041   536
15.6141   563
15.6241   587
15.6341   610
15.6441   618
15.6541   645
15.6641   671
15.6741   688
15.6841   712
15.6941   733
15.7041   741
15.7141   696
15.7241   721
15.7341   768
15.7441   788
15.7541   806
15.7641   799
15.7741   770
15.7841   743
15.7941   779
15.8041   801
15.8141   790
15.8241   760
15.8341   713
15.8441   712
15.8541   696
15.8641   682
15.8741   653
15.8841   611
15.8941   588
15.9041   597
15.9141   585
15.9241   572
15.9341   548
15.9441   543
15.9541   537
15.9641   512
15.9741   479
15.9841   485
15.9941   503
16.0041   508
16.0141   484
16.0241   481
16.0341   479
16.0441   474
16.0541   486
16.0641   505
16.0741   496
16.0841   488
16.0941   463
16.1041   479
16.1141   478
16.1241   499
16.1341   490
16.1441   505
16.1541   477
16.1641   492
16.1741   477
16.1841   512
16.1941   512
16.2041   508
16.2141   499
16.2241   492
16.2341   475
16.2441   481
16.2541   477
16.2641   461
16.2741   491
16.2841   507
16.2941   532
16.3041   513
16.3141   481
16.3241   479
16.3341   493
16.3441   521
16.3541   510
16.3641   487
16.3741   518
16.3841   503
16.3941   486
16.4041   483
16.4141   493
16.4241   510
16.4341   490
16.4441   519
16.4541   505
16.4641   526
16.4741   540
16.4841   525
16.4941   513
16.5041   534
16.5141   539
16.5241   503
16.5341   515
16.5441   536
16.5541   530
16.5641   509
16.5741   518
16.5841   523
16.5941   512
16.6041   510
16.6141   513
16.6241   533
16.6341   553
16.6441   523
16.6541   509
16.6641   498
16.6741   525
16.6841   553
16.6941   537
16.7041   533
16.7141   542
16.7241   556
16.7341   539
16.7441   545
16.7541   516
16.7641   509
16.7741   529
16.7841   530
16.7941   530
16.8041   537
16.8141   512
16.8241   566
16.8341   575
16.8441   539
16.8541   536
16.8641   550
16.8741   557
16.8841   541
16.8941   525
16.9041   538
16.9141   533
16.9241   528
16.9341   533
16.9441   528
16.9541   540
16.9641   533
16.9741   529
16.9841   521
16.9941   531
17.0041   563
17.0141   571
17.0241   564
17.0341   582
17.0441   546
17.0541   545
17.0641   551
17.0741   570
17.0841   537
17.0941   542
17.1041   572
17.1141   592
17.1241   533
17.1341   547
17.1441   523
17.1541   566
17.1641   575
17.1741   582
17.1841   561
17.1941   568
17.2041   553
17.2141   526
17.2241   548
17.2341   570
17.2441   551
17.2541   565
17.2641   584
17.2741   575
17.2841   579
17.2941   610
17.3041   620
17.3141   583
17.3241   609
17.3341   577
17.3441   577
17.3541   618
17.3641   580
17.3741   599
17.3841   585
17.3941   590
17.4041   588
17.4141   580
17.4241   593
17.4341   574
17.4441   555
17.4541   576
17.4641   562
17.4741   582
17.4841   607
17.4941   580
17.5041   593
17.5141   589
17.5241   628
17.5341   611
17.5441   608
17.5541   636
17.5641   628
17.5741   624
17.5841   636
17.5941   631
17.6041   619
17.6141   623
17.6241   638
17.6341   654
17.6441   659
17.6541   645
17.6641   642
17.6741   683
17.6841   665
17.6941   639
17.7041   623
17.7141   641
17.7241   670
17.7341   653
17.7441   621
17.7541   599
17.7641   606
17.7741   641
17.7841   643
17.7941   612
17.8041   625
17.8141   612
17.8241   650
17.8341   619
17.8441   630
17.8541   636
17.8641   621
17.8741   635
17.8841   607
17.8941   590
17.9041   616
17.9141   627
17.9241   639
17.9341   619
17.9441   632
17.9541   622
17.9641   625
17.9741   639
17.9841   643
17.9941   647
18.0041   588
18.0141   648
18.0241   632
18.0341   646
18.0441   645
18.0541   634
18.0641   599
18.0741   600
18.0841   631
18.0941   632
18.1041   643
18.1141   627
18.1241   626
18.1341   631
18.1441   634
18.1541   624
18.1641   657
18.1741   636
18.1841   623
18.1941   608
18.2041   640
18.2141   620
18.2241   614
18.2341   615
18.2441   659
18.2541   653
18.2641   637
18.2741   646
18.2841   620
18.2941   641
18.3041   630
18.3141   588
18.3241   608
18.3341   624
18.3441   634
18.3541   628
18.3641   629
18.3741   657
18.3841   670
18.3941   613
18.4041   607
18.4141   608
18.4241   630
18.4341   644
18.4441   664
18.4541   660
18.4641   646
18.4741   630
18.4841   582
18.4941   639
18.5041   657
18.5141   666
18.5241   678
18.5341   637
18.5441   666
18.5541   668
18.5641   635
18.5741   653
18.5841   681
18.5941   661
18.6041   640
18.6141   633
18.6241   645
18.6341   642
18.6441   648
18.6541   678
18.6641   655
18.6741   657
18.6841   651
18.6941   655
18.7041   650
18.7141   632
18.7241   624
18.7341   669
18.7441   641
18.7541   608
18.7641   700
18.7741   677
18.7841   627
18.7941   634
18.8041   637
18.8141   667
18.8241   669
18.8341   640
18.8441   659
18.8541   684
18.8641   668
18.8741   631
18.8841   649
18.8941   648
18.9041   658
18.9141   704
18.9241   659
18.9341   659
18.9441   690
18.9541   657
18.9641   687
18.9741   674
18.9841   677
18.9941   663
19.0041   649
19.0141   647
19.0241   626
19.0341   625
19.0441   657
19.0541   652
19.0641   645
19.0741   654
19.0841   637
19.0941   657
19.1041   698
19.1141   672
19.1241   680
19.1341   669
19.1441   695
19.1541   664
19.1641   688
19.1741   678
19.1841   667
19.1941   702
19.2041   699
19.2141   698
19.2241   662
19.2341   690
19.2441   653
19.2541   702
19.2641   694
19.2741   651
19.2841   687
19.2941   699
19.3041   671
19.3141   667
19.3241   638
19.3341   692
19.3441   684
19.3541   676
19.3641   685
19.3741   668
19.3841   677
19.3941   671
19.4041   662
19.4141   661
19.4241   655
19.4341   673
19.4441   685
19.4541   664
19.4641   656
19.4741   653
19.4841   665
19.4941   679
19.5041   679
19.5141   686
19.5241   688
19.5341   695
19.5441   700
19.5541   738
19.5641   681
19.5741   670
19.5841   663
19.5941   656
19.6041   698
19.6141   664
19.6241   651
19.6341   710
19.6441   719
19.6541   666
19.6641   684
19.6741   689
19.6841   687
19.6941   673
19.7041   691
19.7141   658
19.7241   660
19.7341   680
19.7441   695
19.7541   669
19.7641   683
19.7741   630
19.7841   668
19.7941   679
19.8041   679
19.8141   671
19.8241   682
19.8341   720
19.8441   677
19.8541   678
19.8641   673
19.8741   708
19.8841   678
19.8941   701
19.9041   697
19.9141   689
19.9241   727
19.9341   729
19.9441   696
19.9541   695
19.9641   648
19.9741   710
19.9841   693
19.9941   694
20.0041   665
20.0141   677
20.0241   676
20.0341   710
20.0441   705
20.0541   665
20.0641   700
20.0741   660
20.0841   676
20.0941   680
20.1041   684
20.1141   698
20.1241   660
20.1341   661
20.1441   667
20.1541   678
20.1641   713
20.1741   661
20.1841   656
20.1941   694
20.2041   678
20.2141   708
20.2241   688
20.2341   649
20.2441   647
20.2541   683
20.2641   710
20.2741   693
20.2841   676
20.2941   647
20.3041   675
20.3141   647
20.3241   635
20.3341   712
20.3441   688
20.3541   681
20.3641   696
20.3741   689
20.3841   683
20.3941   677
20.4041   713
20.4141   698
20.4241   708
20.4341   695
20.4441   682
20.4541   675
20.4641   677
20.4741   651
20.4841   740
20.4941   663
20.5041   680
20.5141   697
20.5241   738
20.5341   658
20.5441   684
20.5541   702
20.5641   683
20.5741   701
20.5841   701
20.5941   682
20.6041   670
20.6141   704
20.6241   723
20.6341   678
20.6441   699
20.6541   703
20.6641   677
20.6741   714
20.6841   700
20.6941   726
20.7041   619
20.7141   700
20.7241   702
20.7341   688
20.7441   664
20.7541   664
20.7641   705
20.7741   705
20.7841   711
20.7941   690
20.8041   718
20.8141   757
20.8241   726
20.8341   699
20.8441   721
20.8541   695
20.8641   736
20.8741   726
20.8841   781
20.8941   747
20.9041   743
20.9141   781
20.9241   814
20.9341   794
20.9441   769
20.9541   769
20.9641   807
20.9741   852
20.9841   821
20.9941   827
21.0041   882
21.0141   929
21.0241   913
21.0341   853
21.0441   887
21.0541   898
21.0641   939
21.0741   912
21.0841   917
21.0941   904
21.1041   981
21.1141   913
21.1241   968
21.1341   946
21.1441   919
21.1541   966
21.1641   974
21.1741   908
21.1841   924
21.1941   896
21.2041   892
21.2141   911
21.2241   842
21.2341   859
21.2441   908
21.2541   807
21.2641   817
21.2741   874
21.2841   802
21.2941   796
21.3041   785
21.3141   775
21.3241   747
21.3341   734
21.3441   770
21.3541   730
21.3641   713
21.3741   713
21.3841   686
21.3941   694
21.4041   734
21.4141   651
21.4241   699
21.4341   714
21.4441   687
21.4541   664
21.4641   664
21.4741   682
21.4841   685
21.4941   683
21.5041   645
21.5141   689
21.5241   624
21.5341   693
21.5441   699
21.5541   678
21.5641   658
21.5741   679
21.5841   640
21.5941   689
21.6041   677
21.6141   637
21.6241   626
21.6341   655
21.6441   663
21.6541   670
21.6641   666
21.6741   696
21.6841   659
21.6941   705
21.7041   669
21.7141   714
21.7241   681
21.7341   715
21.7441   673
21.7541   684
21.7641   644
21.7741   663
21.7841   685
21.7941   709
21.8041   658
21.8141   661
21.8241   649
21.8341   694
21.8441   679
21.8541   685
21.8641   666
21.8741   644
21.8841   661
21.8941   681
21.9041   658
21.9141   666
21.9241   700
21.9341   675
21.9441   640
21.9541   716
21.9641   655
21.9741   662
21.9841   697
21.9941   694
22.0041   643
22.0141   647
22.0241   653
22.0341   678
22.0441   646
22.0541   663
22.0641   640
22.0741   636
22.0841   647
22.0941   647
22.1041   677
22.1141   659
22.1241   676
22.1341   639
22.1441   670
22.1541   626
22.1641   663
22.1741   667
22.1841   686
22.1941   628
22.2041   656
22.2141   636
22.2241   730
22.2341   675
22.2441   580
22.2541   632
22.2641   636
22.2741   657
22.2841   659
22.2941   619
22.3041   687
22.3141   624
22.3241   654
22.3341   631
22.3441   624
22.3541   702
22.3641   655
22.3741   634
22.3841   644
22.3941   632
22.4041   652
22.4141   657
22.4241   649
22.4341   649
22.4441   645
22.4541   677
22.4641   608
22.4741   623
22.4841   637
22.4941   700
22.5041   631
22.5141   643
22.5241   678
22.5341   602
22.5441   671
22.5541   704
22.5641   634
22.5741   634
22.5841   648
22.5941   618
22.6041   620
22.6141   643
22.6241   672
22.6341   646
22.6441   662
22.6541   616
22.6641   633
22.6741   667
22.6841   694
22.6941   624
22.7041   699
22.7141   628
22.7241   672
22.7341   601
22.7441   658
22.7541   646
22.7641   630
22.7741   669
22.7841   633
22.7941   594
22.8041   643
22.8141   612
22.8241   670
22.8341   663
22.8441   644
22.8541   604
22.8641   601
22.8741   618
22.8841   622
22.8941   647
22.9041   619
22.9141   675
22.9241   640
22.9341   633
22.9441   613
22.9541   623
22.9641   659
22.9741   609
22.9841   599
22.9941   652
23.0041   653
23.0141   584
23.0241   592
23.0341   611
23.0441   627
23.0541   590
23.0641   612
23.0741   629
23.0841   651
23.0941   644
23.1041   612
23.1141   660
23.1241   618
23.1341   614
23.1441   632
23.1541   635
23.1641   666
23.1741   648
23.1841   609
23.1941   584
23.2041   625
23.2141   627
23.2241   611
23.2341   616
23.2441   590
23.2541   622
23.2641   616
23.2741   635
23.2841   603
23.2941   620
23.3041   639
23.3141   605
23.3241   632
23.3341   604
23.3441   638
23.3541   592
23.3641   636
23.3741   595
23.3841   569
23.3941   633
23.4041   630
23.4141   594
23.4241   640
23.4341   623
23.4441   602
23.4541   641
23.4641   595
23.4741   559
23.4841   612
23.4941   573
23.5041   606
23.5141   591
23.5241   579
23.5341   579
23.5441   620
23.5541   628
23.5641   628
23.5741   608
23.5841   623
23.5941   628
23.6041   646
23.6141   600
23.6241   659
23.6341   622
23.6441   644
23.6541   654
23.6641   623
23.6741   637
23.6841   653
23.6941   653
23.7041   611
23.7141   647
23.7241   662
23.7341   636
23.7441   600
23.7541   617
23.7641   635
23.7741   602
23.7841   637
23.7941   644
23.8041   615
23.8141   592
23.8241   624
23.8341   647
23.8441   647
23.8541   621
23.8641   622
23.8741   631
23.8841   608
23.8941   623
23.9041   652
23.9141   597
23.9241   615
23.9341   623
23.9441   565
23.9541   599
23.9641   621
23.9741   618
23.9841   617
23.9941   614
24.0041   595
24.0141   594
24.0241   601
24.0341   605
24.0441   581
24.0541   585
24.0641   631
24.0741   596
24.0841   581
24.0941   581
24.1041   531
24.1141   587
24.1241   594
24.1341   584
24.1441   559
24.1541   547
24.1641   543
24.1741   558
24.1841   587
24.1941   588
24.2041   591
24.2141   564
24.2241   574
24.2341   548
24.2441   570
24.2541   587
24.2641   554
24.2741   567
24.2841   535
24.2941   618
24.3041   606
24.3141   563
24.3241   561
24.3341   580
24.3441   605
24.3541   583
24.3641   571
24.3741   544
24.3841   567
24.3941   558
24.4041   586
24.4141   585
24.4241   586
24.4341   568
24.4441   565
24.4541   561
24.4641   588
24.4741   585
24.4841   562
24.4941   508
24.5041   609
24.5141   512
24.5241   586
24.5341   543
24.5441   569
24.5541   572
24.5641   589
24.5741   562
24.5841   518
24.5941   489
24.6041   555
24.6141   596
24.6241   577
24.6341   550
24.6441   537
24.6541   538
24.6641   572
24.6741   587
24.6841   505
24.6941   567
24.7041   534
24.7141   534
24.7241   558
24.7341   595
24.7441   543
24.7541   515
24.7641   524
24.7741   523
24.7841   541
24.7941   501
24.8041   512
24.8141   573
24.8241   575
24.8341   539
24.8441   502
24.8541   540
24.8641   564
24.8741   536
24.8841   524
24.8941   537
24.9041   556
24.9141   519
24.9241   531
24.9341   546
24.9441   528
24.9541   549
24.9641   559
24.9741   541
24.9841   533
24.9941   527
25.0041   524
25.0141   536
25.0241   525
25.0341   567
25.0441   569
25.0541   543
25.0641   556
25.0741   557
25.0841   562
25.0941   543
25.1041   514
25.1141   559
25.1241   540
25.1341   544
25.1441   536
25.1541   528
25.1641   554
25.1741   567
25.1841   553
25.1941   524
25.2041   548
25.2141   529
25.2241   514
25.2341   504
25.2441   553
25.2541   550
25.2641   523
25.2741   563
25.2841   533
25.2941   546
25.3041   531
25.3141   506
25.3241   529
25.3341   504
25.3441   539
25.3541   521
25.3641   512
25.3741   535
25.3841   518
25.3941   519
25.4041   558
25.4141   522
25.4241   518
25.4341   540
25.4441   506
25.4541   510
25.4641   529
25.4741   522
25.4841   547
25.4941   516
25.5041   511
25.5141   464
25.5241   523
25.5341   510
25.5441   492
25.5541   493
25.5641   482
25.5741   502
25.5841   480
25.5941   523
25.6041   513
25.6141   472
25.6241   532
25.6341   497
25.6441   519
25.6541   461
25.6641   517
25.6741   496
25.6841   461
25.6941   526
25.7041   481
25.7141   476
25.7241   505
25.7341   496
25.7441   497
25.7541   490
25.7641   486
25.7741   470
25.7841   491
25.7941   497
25.8041   509
25.8141   463
25.8241   501
25.8341   484
25.8441   494
25.8541   463
25.8641   498
25.8741   483
25.8841   487
25.8941   491
25.9041   477
25.9141   453
25.9241   486
25.9341   452
25.9441   475
25.9541   491
25.9641   498
25.9741   488
25.9841   464
25.9941   481
26.0041   428
26.0141   492
26.0241   475
26.0341   470
26.0441   500
26.0541   485
26.0641   474
26.0741   494
26.0841   445
26.0941   461
26.1041   471
26.1141   485
26.1241   499
26.1341   468
26.1441   464
26.1541   504
26.1641   468
26.1741   489
26.1841   522
26.1941   469
26.2041   461
26.2141   454
26.2241   454
26.2341   454
26.2441   478
26.2541   472
26.2641   501
26.2741   444
26.2841   485
26.2941   431
26.3041   481
26.3141   455
26.3241   451
26.3341   473
26.3441   509
26.3541   483
26.3641   436
26.3741   526
26.3841   472
26.3941   458
26.4041   446
26.4141   476
26.4241   464
26.4341   471
26.4441   443
26.4541   432
26.4641   472
26.4741   452
26.4841   432
26.4941   421
26.5041   487
26.5141   463
26.5241   472
26.5341   428
26.5441   435
26.5541   474
26.5641   450
26.5741   467
26.5841   435
26.5941   429
26.6041   429
26.6141   432
26.6241   471
26.6341   416
26.6441   455
26.6541   441
26.6641   438
26.6741   451
26.6841   445
26.6941   451
26.7041   428
26.7141   455
26.7241   430
26.7341   441
26.7441   437
26.7541   425
26.7641   421
26.7741   436
26.7841   457
26.7941   433
26.8041   428
26.8141   425
26.8241   419
26.8341   470
26.8441   421
26.8541   399
26.8641   390
26.8741   394
26.8841   392
26.8941   418
26.9041   443
26.9141   427
26.9241   447
26.9341   413
26.9441   441
26.9541   408
26.9641   419
26.9741   417
26.9841   402
26.9941   415
27.0041   426
27.0141   405
27.0241   430
27.0341   424
27.0441   445
27.0541   429
27.0641   404
27.0741   391
27.0841   414
27.0941   434
27.1041   388
27.1141   402
27.1241   430
27.1341   410
27.1441   448
27.1541   435
27.1641   445
27.1741   445
27.1841   427
27.1941   407
27.2041   456
27.2141   423
27.2241   396
27.2341   436
27.2441   402
27.2541   418
27.2641   446
27.2741   434
27.2841   442
27.2941   422
27.3041   423
27.3141   453
27.3241   380
27.3341   403
27.3441   415
27.3541   390
27.3641   442
27.3741   423
27.3841   422
27.3941   428
27.4041   389
27.4141   411
27.4241   457
27.4341   452
27.4441   448
27.4541   378
27.4641   388
27.4741   422
27.4841   403
27.4941   426
27.5041   392
27.5141   388
27.5241   392
27.5341   396
27.5441   421
27.5541   412
27.5641   384
27.5741   394
27.5841   430
27.5941   393
27.6041   432
27.6141   455
27.6241   408
27.6341   387
27.6441   426
27.6541   423
27.6641   407
27.6741   414
27.6841   400
27.6941   391
27.7041   411
27.7141   369
27.7241   390
27.7341   413
27.7441   396
27.7541   388
27.7641   364
27.7741   392
27.7841   389
27.7941   403
27.8041   430
27.8141   422
27.8241   393
27.8341   403
27.8441   363
27.8541   384
27.8641   399
27.8741   353
27.8841   371
27.8941   392
27.9041   373
27.9141   366
27.9241   365
27.9341   389
27.9441   381
27.9541   388
27.9641   373
27.9741   369
27.9841   403
27.9941   387
28.0041   364
28.0141   367
28.0241   393
28.0341   356
28.0441   374
28.0541   371
28.0641   372
28.0741   377
28.0841   366
28.0941   356
28.1041   353
28.1141   391
28.1241   345
28.1341   375
28.1441   335
28.1541   324
28.1641   390
28.1741   369
28.1841   358
28.1941   397
28.2041   381
28.2141   374
28.2241   383
28.2341   375
28.2441   369
28.2541   370
28.2641   346
28.2741   366
28.2841   375
28.2941   368
28.3041   361
28.3141   377
28.3241   329
28.3341   360
28.3441   340
28.3541   358
28.3641   371
28.3741   386
28.3841   369
28.3941   368
28.4041   366
28.4141   353
28.4241   357
28.4341   360
28.4441   353
28.4541   336
28.4641   345
28.4741   355
28.4841   356
28.4941   330
28.5041   347
28.5141   395
28.5241   347
28.5341   303
28.5441   336
28.5541   333
28.5641   317
28.5741   329
28.5841   356
28.5941   355
28.6041   348
28.6141   373
28.6241   351
28.6341   359
28.6441   349
28.6541   321
28.6641   345
28.6741   340
28.6841   334
28.6941   330
28.7041   359
28.7141   340
28.7241   322
28.7341   320
28.7441   289
28.7541   312
28.7641   340
28.7741   302
28.7841   341
28.7941   334
28.8041   339
28.8141   320
28.8241   364
28.8341   331
28.8441   336
28.8541   350
28.8641   354
28.8741   364
28.8841   354
28.8941   333
28.9041   342
28.9141   315
28.9241   304
28.9341   309
28.9441   321
28.9541   325
28.9641   286
28.9741   327
28.9841   325
28.9941   324
29.0041   307
29.0141   320
29.0241   322
29.0341   361
29.0441   331
29.0541   322
29.0641   321
29.0741   302
29.0841   321
29.0941   310
29.1041   313
29.1141   327
29.1241   355
29.1341   322
29.1441   333
29.1541   328
29.1641   293
29.1741   290
29.1841   314
29.1941   341
29.2041   300
29.2141   335
29.2241   334
29.2341   317
29.2441   315
29.2541   315
29.2641   331
29.2741   327
29.2841   311
29.2941   303
29.3041   304
29.3141   294
29.3241   283
29.3341   287
29.3441   312
29.3541   290
29.3641   288
29.3741   281
29.3841   308
29.3941   295
29.4041   314
29.4141   305
29.4241   311
29.4341   308
29.4441   311
29.4541   307
29.4641   322
29.4741   305
29.4841   310
29.4941   344
29.5041   302
29.5141   300
29.5241   279
29.5341   278
29.5441   300
29.5541   289
29.5641   294
29.5741   276
29.5841   298
29.5941   308
29.6041   268
29.6141   296
29.6241   300
29.6341   294
29.6441   300
29.6541   297
29.6641   301
29.6741   296
29.6841   346
29.6941   296
29.7041   322
29.7141   298
29.7241   248
29.7341   297
29.7441   297
29.7541   291
29.7641   275
29.7741   291
29.7841   284
29.7941   318
29.8041   265
29.8141   285
29.8241   280
29.8341   288
29.8441   281
29.8541   323
29.8641   279
29.8741   255
29.8841   306
29.8941   285
29.9041   303
29.9141   305
29.9241   271
29.9341   285
29.9441   289
29.9541   271
29.9641   283
29.9741   287
29.9841   279
29.9941   279
30.0041   268
30.0141   269
30.0241   318
30.0341   293
30.0441   285
30.0541   276
30.0641   258
30.0741   268
30.0841   246
30.0941   268
30.1041   281
30.1141   288
30.1241   288
30.1341   282
30.1441   275
30.1541   300
30.1641   258
30.1741   253
30.1841   269
30.1941   260
30.2041   265
30.2141   270
30.2241   255
30.2341   266
30.2441   265
30.2541   259
30.2641   285
30.2741   274
30.2841   272
30.2941   263
30.3041   264
30.3141   255
30.3241   258
30.3341   254
30.3441   292
30.3541   282
30.3641   284
30.3741   251
30.3841   246
30.3941   275
30.4041   264
30.4141   263
30.4241   252
30.4341   256
30.4441   236
30.4541   264
30.4641   261
30.4741   256
30.4841   260
30.4941   258
30.5041   257
30.5141   254
30.5241   243
30.5341   266
30.5441   245
30.5541   266
30.5641   241
30.5741   243
30.5841   230
30.5941   253
30.6041   252
30.6141   261
30.6241   253
30.6341   259
30.6441   215
30.6541   260
30.6641   253
30.6741   273
30.6841   259
30.6941   246
30.7041   249
30.7141   247
30.7241   253
30.7341   241
30.7441   229
30.7541   260
30.7641   252
30.7741   249
30.7841   241
30.7941   258
30.8041   260
30.8141   247
30.8241   250
30.8341   266
30.8441   242
30.8541   218
30.8641   245
30.8741   263
30.8841   255
30.8941   256
30.9041   247
30.9141   238
30.9241   239
30.9341   259
30.9441   247
30.9541   257
30.9641   238
30.9741   255
30.9841   242
30.9941   228
31.0041   242
31.0141   236
31.0241   250
31.0341   254
31.0441   222
31.0541   228
31.0641   256
31.0741   258
31.0841   226
31.0941   250
31.1041   232
31.1141   236
31.1241   249
31.1341   229
31.1441   229
31.1541   270
31.1641   247
31.1741   252
31.1841   265
31.1941   239
31.2041   230
31.2141   214
31.2241   233
31.2341   224
31.2441   253
31.2541   233
31.2641   210
31.2741   225
31.2841   217
31.2941   256
31.3041   239
31.3141   227
31.3241   231
31.3341   229
31.3441   228
31.3541   218
31.3641   252
31.3741   222
31.3841   249
31.3941   241
31.4041   224
31.4141   238
31.4241   200
31.4341   224
31.4441   203
31.4541   208
31.4641   225
31.4741   228
31.4841   224
31.4941   226
31.5041   211
31.5141   227
31.5241   230
31.5341   216
31.5441   235
31.5541   232
31.5641   195
31.5741   202
31.5841   218
31.5941   217
31.6041   205
31.6141   230
31.6241   237
31.6341   215
31.6441   214
31.6541   232
31.6641   214
31.6741   200
31.6841   225
31.6941   247
31.7041   202
31.7141   218
31.7241   220
31.7341   222
31.7441   203
31.7541   204
31.7641   213
31.7741   230
31.7841   200
31.7941   193
31.8041   202
31.8141   222
31.8241   212
31.8341   201
31.8441   225
31.8541   206
31.8641   217
31.8741   209
31.8841   210
31.8941   223
31.9041   229
31.9141   201
31.9241   200
31.9341   196
31.9441   214
31.9541   208
31.9641   193
31.9741   184
31.9841   187
31.9941   213
32.0041   219
32.0141   212
32.0241   191
32.0341   188
32.0441   197
32.0541   215
32.0641   198
32.0741   220
32.0841   189
32.0941   207
32.1041   231
32.1141   200
32.1241   218
32.1341   217
32.1441   220
32.1541   179
32.1641   203
32.1741   208
32.1841   211
32.1941   208
32.2041   188
32.2141   221
32.2241   197
32.2341   188
32.2441   193
32.2541   218
32.2641   187
32.2741   217
32.2841   193
32.2941   215
32.3041   188
32.3141   219
32.3241   198
32.3341   196
32.3441   188
32.3541   190
32.3641   217
32.3741   212
32.3841   216
32.3941   187
32.4041   194
32.4141   213
32.4241   171
32.4341   179
32.4441   186
32.4541   185
32.4641   189
32.4741   197
32.4841   164
32.4941   198
32.5041   192
32.5141   195
32.5241   188
32.5341   173
32.5441   189
32.5541   190
32.5641   201
32.5741   195
32.5841   196
32.5941   190
32.6041   179
32.6141   164
32.6241   178
32.6341   182
32.6441   188
32.6541   194
32.6641   168
32.6741   165
32.6841   196
32.6941   194
32.7041   171
32.7141   175
32.7241   187
32.7341   189
32.7441   171
32.7541   196
32.7641   154
32.7741   187
32.7841   172
32.7941   178
32.8041   159
32.8141   162
32.8241   155
32.8341   152
32.8441   158
32.8541   166
32.8641   164
32.8741   171
32.8841   162
32.8941   151
32.9041   178
32.9141   163
32.9241   174
32.9341   162
32.9441   179
32.9541   165
32.9641   181
32.9741   164
32.9841   134
32.9941   164
33.0041   175
33.0141   169
33.0241   152
33.0341   159
33.0441   161
33.0541   154
33.0641   170
33.0741   175
33.0841   187
33.0941   196
33.1041   193
33.1141   164
33.1241   180
33.1341   178
33.1441   149
33.1541   155
33.1641   177
33.1741   157
33.1841   155
33.1941   147
33.2041   144
33.2141   157
33.2241   158
33.2341   152
33.2441   168
33.2541   160
33.2641   164
33.2741   154
33.2841   157
33.2941   164
33.3041   179
33.3141   168
33.3241   164
33.3341   155
33.3441   145
33.3541   153
33.3641   163
33.3741   159
33.3841   158
33.3941   151
33.4041   157
33.4141   140
33.4241   143
33.4341   150
33.4441   161
33.4541   157
33.4641   149
33.4741   178
33.4841   141
33.4941   150
33.5041   152
33.5141   154
33.5241   165
33.5341   140
33.5441   146
33.5541   166
33.5641   152
33.5741   169
33.5841   149
33.5941   159
33.6041   133
33.6141   140
33.6241   147
33.6341   169
33.6441   141
33.6541   150
33.6641   146
33.6741   145
33.6841   172
33.6941   160
33.7041   145
33.7141   167
33.7241   143
33.7341   155
33.7441   158
33.7541   147
33.7641   145
33.7741   162
33.7841   134
33.7941   166
33.8041   151
33.8141   155
33.8241   142
33.8341   139
33.8441   130
33.8541   143
33.8641   144
33.8741   144
33.8841   141
33.8941   148
33.9041   150
33.9141   144
33.9241   126
33.9341   150
33.9441   144
33.9541   144
33.9641   138
33.9741   142
33.9841   120
33.9941   141
34.0041   141
34.0141   143
34.0241   139
34.0341   154
34.0441   143
34.0541   181
34.0641   137
34.0741   128
34.0841   133
34.0941   129
34.1041   143
34.1141   142
34.1241   149
34.1341   141
34.1441   125
34.1541   145
34.1641   132
34.1741   160
34.1841   116
34.1941   131
34.2041   131
34.2141   130
34.2241   130
34.2341   127
34.2441   126
34.2541   128
34.2641   123
34.2741   124
34.2841   129
34.2941   128
34.3041   128
34.3141   132
34.3241   132
34.3341   115
34.3441   138
34.3541   135
34.3641   126
34.3741   125
34.3841   144
34.3941   136
34.4041   127
34.4141   132
34.4241   127
34.4341   137
34.4441   117
34.4541   123
34.4641   122
34.4741   136
34.4841   127
34.4941   112
34.5041   121
34.5141   116
34.5241   125
34.5341   133
34.5441   114
34.5541   128
34.5641   131
34.5741   135
34.5841   115
34.5941   127
34.6041   124
34.6141   127
34.6241   121
34.6341   130
34.6441   133
34.6541   120
34.6641   136
34.6741   127
34.6841   130
34.6941   123
34.7041   123
34.7141   108
34.7241   122
34.7341   101
34.7441   117
34.7541   131
34.7641   121
34.7741   133
34.7841   133
34.7941   114
34.8041   125
34.8141   114
34.8241   124
34.8341   114
34.8441   127
34.8541   114
34.8641   118
34.8741   109
34.8841   123
34.8941   111
34.9041    95
34.9141   120
34.9241   112
34.9341   122
34.9441   112
34.9541   111
34.9641   122
34.9741   109
34.9841   121
34.9941   109
35.0041   109
35.0141   102
35.0241   107
35.0341   103
35.0441   114
35.0541   123
35.0641   123
35.0741   114
35.0841   122
35.0941   110
35.1041   118
35.1141   100
35.1241   136
35.1341   103
35.1441   126
35.1541   116
35.1641   112
35.1741   105
35.1841   110
35.1941   106
35.2041   118
35.2141   115
35.2241   109
35.2341   102
35.2441    92
35.2541   110
35.2641   121
35.2741   116
35.2841    94
35.2941   101
35.3041    98
35.3141    86
35.3241   101
35.3341   103
35.3441   101
35.3541   109
35.3641   121
35.3741    85
35.3841    99
35.3941   113
35.4041   100
35.4141   103
35.4241   114
35.4341   116
35.4441   105
35.4541   112
35.4641    86
35.4741   107
35.4841   117
35.4941    99
35.5041    85
35.5141    84
35.5241   112
35.5341   103
35.5441   108
35.5541    96
35.5641   102
35.5741   105
35.5841   107
35.5941    87
35.6041    91
35.6141   106
35.6241    99
35.6341    94
35.6441    94
35.6541   100
35.6641   107
35.6741   104
35.6841   101
35.6941    82
35.7041    90
35.7141   108
35.7241    98
35.7341   100
35.7441   108
35.7541    92
35.7641   101
35.7741    76
35.7841   103
35.7941   108
35.8041    89
35.8141    98
35.8241   111
35.8341   110
35.8441    94
35.8541    93
35.8641    80
35.8741    92
35.8841    98
35.8941   103
35.9041    91
35.9141    95
35.9241    95
35.9341    99
35.9441    92
35.9541    92
35.9641   108
35.9741    81
35.9841   101
35.9941    88
36.0041    94
36.0141    97
36.0241    83
36.0341    98
36.0441    95
36.0541    83
36.0641    92
36.0741   100
36.0841    78
36.0941    78
36.1041    90
36.1141    94
36.1241    89
36.1341    83
36.1441    83
36.1541    78
36.1641   114
36.1741    72
36.1841    78
36.1941    79
36.2041    83
36.2141    93
36.2241    73
36.2341    86
36.2441    85
36.2541   102
36.2641    81
36.2741    70
36.2841    82
36.2941    92
36.3041    99
36.3141    85
36.3241   106
36.3341    80
36.3441    89
36.3541    78
36.3641    92
36.3741    84
36.3841   102
36.3941    82
36.4041    81
36.4141    82
36.4241    89
36.4341    69
36.4441    98
36.4541    90
36.4641    78
36.4741    91
36.4841    71
36.4941    81
36.5041    85
36.5141    71
36.5241    92
36.5341    90
36.5441    76
36.5541    77
36.5641    79
36.5741    75
36.5841    79
36.5941    82
36.6041    62
36.6141    85
36.6241    90
36.6341    87
36.6441    84
36.6541    79
36.6641    93
36.6741    84
36.6841    69
36.6941    74
36.7041    80
36.7141    78
36.7241    84
36.7341    87
36.7441    82
36.7541    64
36.7641   106
36.7741    65
36.7841    80
36.7941    73
36.8041    92
36.8141    87
36.8241    87
36.8341    83
36.8441    77
36.8541    86
36.8641    75
36.8741    77
36.8841    67
36.8941    81
36.9041    64
36.9141    64
36.9241    84
36.9341    79
36.9441    74
36.9541    71
36.9641    70
36.9741    88
36.9841    67
36.9941    65
37.0041    62
37.0141    80
37.0241    73
37.0341    59
37.0441    74
37.0541    75
37.0641    70
37.0741    64
37.0841    70
37.0941    68
37.1041    73
37.1141    69
37.1241    79
37.1341    70
37.1441    73
37.1541    59
37.1641    65
37.1741    67
37.1841    64
37.1941    72
37.2041    76
37.2141    75
37.2241    91
37.2341    84
37.2441    63
37.2541    71
37.2641    61
37.2741    64
37.2841    66
37.2941    68
37.3041    73
37.3141    67
37.3241    65
37.3341    63
37.3441    71
37.3541    54
37.3641    62
37.3741    57
37.3841    59
37.3941    61
37.4041    56
37.4141    61
37.4241    74
37.4341    63
37.4441    67
37.4541    64
37.4641    63
37.4741    78
37.4841    75
37.4941    50
37.5041    60
37.5141    60
37.5241    44
37.5341    60
37.5441    48
37.5541    71
37.5641    63
37.5741    58
37.5841    63
37.5941    76
37.6041    70
37.6141    65
37.6241    60
37.6341    59
37.6441    58
37.6541    54
37.6641    71
37.6741    60
37.6841    58
37.6941    63
37.7041    54
37.7141    63
37.7241    57
37.7341    60
37.7441    57
37.7541    63
37.7641    59
37.7741    57
37.7841    48
37.7941    53
37.8041    47
37.8141    76
37.8241    43
37.8341    71
37.8441    56
37.8541    56
37.8641    71
37.8741    57
37.8841    53
37.8941    53
37.9041    60
37.9141    68
37.9241    36
37.9341    68
37.9441    60
37.9541    63
37.9641    67
37.9741    55
37.9841    58
37.9941    67
38.0041    57
38.0141    63
38.0241    59
38.0341    60
38.0441    41
38.0541    51
38.0641    68
38.0741    52
38.0841    55
38.0941    49
38.1041    53
38.1141    53
38.1241    54
38.1341    55
38.1441    58
38.1541    54
38.1641    52
38.1741    48
38.1841    50
38.1941    52
38.2041    57
38.2141    50
38.2241    48
38.2341    52
38.2441    48
38.2541    50
38.2641    51
38.2741    57
38.2841    48
38.2941    47
38.3041    48
38.3141    51
38.3241    46
38.3341    56
38.3441    48
38.3541    47
38.3641    54
38.3741    45
38.3841    57
38.3941    44
38.4041    40
38.4141    61
38.4241    50
38.4341    50
38.4441    48
38.4541    60
38.4641    40
38.4741    39
38.4841    51
38.4941    41
38.5041    53
38.5141    48
38.5241    54
38.5341    40
38.5441    50
38.5541    51
38.5641    53
38.5741    49
38.5841    35
38.5941    41
38.6041    47
38.6141    42
38.6241    44
38.6341    38
38.6441    42
38.6541    56
38.6641    42
38.6741    37
38.6841    42
38.6941    43
38.7041    51
38.7141    57
38.7241    37
38.7341    52
38.7441    42
38.7541    43
38.7641    45
38.7741    37
38.7841    38
38.7941    44
38.8041    48
38.8141    38
38.8241    33
38.8341    53
38.8441    58
38.8541    39
38.8641    48
38.8741    46
38.8841    47
38.8941    55
38.9041    39
38.9141    40
38.9241    50
38.9341    42
38.9441    41
38.9541    36
38.9641    30
38.9741    36
38.9841    45
38.9941    48
39.0041    46
39.0141    42
39.0241    49
39.0341    39
39.0441    50
39.0541    33
39.0641    35
39.0741    41
39.0841    36
39.0941    46
39.1041    41
39.1141    48
39.1241    29
39.1341    48
39.1441    46
39.1541    34
39.1641    31
39.1741    41
39.1841    35
39.1941    40
39.2041    37
39.2141    50
39.2241    41
39.2341    34
39.2441    35
39.2541    42
39.2641    44
39.2741    36
39.2841    34
39.2941    36
39.3041    40
39.3141    41
39.3241    42
39.3341    35
39.3441    33
39.3541    30
39.3641    39
39.3741    30
39.3841    38
39.3941    23
39.4041    26
39.4141    35
39.4241    29
39.4341    40
39.4441    26
39.4541    31
39.4641    40
39.4741    36
39.4841    35
39.4941    34
39.5041    30
39.5141    34
39.5241    50
39.5341    28
39.5441    29
39.5541    34
39.5641    41
39.5741    31
39.5841    23
39.5941    30
39.6041    33
39.6141    27
39.6241    22
39.6341    40
39.6441    30
39.6541    41
39.6641    35
39.6741    28
39.6841    35
39.6941    37
39.7041    28
39.7141    35
39.7241    31
39.7341    46
39.7441    26
39.7541    32
39.7641    24
39.7741    20
39.7841    21
39.7941    37
39.8041    29
39.8141    27
39.8241    31
39.8341    31
39.8441    25
39.8541    33
39.8641    28
39.8741    31
39.8841    29
39.8941    30
39.9041    19
39.9141    24
39.9241    28
39.9341    29
39.9441    28
39.9541    31
39.9641    35
39.9741    34
39.9841    24
