Bruker Nano GmbH Berlin, Germany
Esprit 1.9

Date: 4/1/2021 4:23:34 PM
Real time: 14272
Life time: 13092
Pulse density: 125278


Detector type: XFlash 430
Window type: Custom type
Detector thickness: 0.45
Si dead layer:0.029

Calibration, lin.: 10
Calibration, abs.: -955.9
Mn FWHM: 137.05
Fano factor: 0.121
Channels: 4095

Energy Counts
-0.9559     0
-0.9459     0
-0.9359     0
-0.9259     0
-0.9159     0
-0.9059     0
-0.8959     0
-0.8859     0
-0.8759     0
-0.8659     0
-0.8559     0
-0.8459     0
-0.8359     0
-0.8259     0
-0.8159     0
-0.8059     0
-0.7959     0
-0.7859     0
-0.7759     0
-0.7659     0
-0.7559     0
-0.7459     0
-0.7359     0
-0.7259     0
-0.7159     0
-0.7059     0
-0.6959     0
-0.6859     0
-0.6759     0
-0.6659     0
-0.6559     0
-0.6459     0
-0.6359     0
-0.6259     0
-0.6159     0
-0.6059     0
-0.5959     0
-0.5859     0
-0.5759     0
-0.5659     0
-0.5559     0
-0.5459     0
-0.5359     0
-0.5259     0
-0.5159     0
-0.5059     0
-0.4959     0
-0.4859     0
-0.4759     0
-0.4659     0
-0.4559     0
-0.4459     0
-0.4359     0
-0.4259     0
-0.4159     0
-0.4059     0
-0.3959     0
-0.3859     0
-0.3759     0
-0.3659     0
-0.3559     0
-0.3459     0
-0.3359     0
-0.3259     0
-0.3159     0
-0.3059     0
-0.2959     0
-0.2859     0
-0.2759     0
-0.2659     0
-0.2559     0
-0.2459     0
-0.2359     0
-0.2259     0
-0.2159     0
-0.2059     0
-0.1959     0
-0.1859     0
-0.1759     0
-0.1659     0
-0.1559     0
-0.1459     0
-0.1359     0
-0.1259     0
-0.1159     5
-0.1059     7
-0.0959    39
-0.0859   135
-0.0759   504
-0.0659  1466
-0.0559  3844
-0.0459  8216
-0.0359 15595
-0.0259 24993
-0.0159 33957
-0.0059 40521
 0.0041 40553
 0.0141 34530
 0.0241 25502
 0.0341 16183
 0.0441  8888
 0.0541  4093
 0.0641  1652
 0.0741   581
 0.0841   166
 0.0941    42
 0.1041    19
 0.1141     8
 0.1241     4
 0.1341     8
 0.1441     7
 0.1541     1
 0.1641     0
 0.1741    18
 0.1841   125
 0.1941   221
 0.2041   217
 0.2141   188
 0.2241   211
 0.2341   209
 0.2441   202
 0.2541   213
 0.2641   206
 0.2741   201
 0.2841   215
 0.2941   218
 0.3041   207
 0.3141   200
 0.3241   193
 0.3341   216
 0.3441   182
 0.3541   175
 0.3641   173
 0.3741   179
 0.3841   184
 0.3941   183
 0.4041   175
 0.4141   193
 0.4241   207
 0.4341   187
 0.4441   187
 0.4541   188
 0.4641   173
 0.4741   189
 0.4841   195
 0.4941   199
 0.5041   180
 0.5141   181
 0.5241   171
 0.5341   172
 0.5441   187
 0.5541   184
 0.5641   164
 0.5741   163
 0.5841   169
 0.5941   159
 0.6041   163
 0.6141   149
 0.6241   156
 0.6341   165
 0.6441   168
 0.6541   161
 0.6641   151
 0.6741   146
 0.6841   145
 0.6941   151
 0.7041   163
 0.7141   163
 0.7241   160
 0.7341   160
 0.7441   148
 0.7541   144
 0.7641   142
 0.7741   142
 0.7841   163
 0.7941   160
 0.8041   143
 0.8141   125
 0.8241   138
 0.8341   155
 0.8441   152
 0.8541   158
 0.8641   147
 0.8741   143
 0.8841   140
 0.8941   151
 0.9041   154
 0.9141   146
 0.9241   137
 0.9341   134
 0.9441   134
 0.9541   127
 0.9641   140
 0.9741   141
 0.9841   134
 0.9941   130
 1.0041   148
 1.0141   147
 1.0241   143
 1.0341   138
 1.0441   145
 1.0541   147
 1.0641   127
 1.0741   142
 1.0841   147
 1.0941   133
 1.1041   132
 1.1141   137
 1.1241   136
 1.1341   121
 1.1441   139
 1.1541   127
 1.1641   119
 1.1741   130
 1.1841   137
 1.1941   130
 1.2041   117
 1.2141   132
 1.2241   143
 1.2341   129
 1.2441   131
 1.2541   131
 1.2641   130
 1.2741   142
 1.2841   123
 1.2941   126
 1.3041   118
 1.3141   132
 1.3241   116
 1.3341   132
 1.3441   133
 1.3541   120
 1.3641   124
 1.3741   123
 1.3841   102
 1.3941   106
 1.4041   127
 1.4141   133
 1.4241   118
 1.4341   126
 1.4441   130
 1.4541   110
 1.4641   121
 1.4741   140
 1.4841   139
 1.4941   134
 1.5041   124
 1.5141   130
 1.5241   138
 1.5341   140
 1.5441   127
 1.5541   117
 1.5641   128
 1.5741   119
 1.5841   120
 1.5941   108
 1.6041   124
 1.6141   118
 1.6241   113
 1.6341   130
 1.6441   140
 1.6541   144
 1.6641   162
 1.6741   212
 1.6841   260
 1.6941   326
 1.7041   401
 1.7141   473
 1.7241   551
 1.7341   546
 1.7441   550
 1.7541   492
 1.7641   444
 1.7741   383
 1.7841   314
 1.7941   287
 1.8041   231
 1.8141   181
 1.8241   182
 1.8341   162
 1.8441   159
 1.8541   136
 1.8641   135
 1.8741   119
 1.8841   115
 1.8941   128
 1.9041   118
 1.9141   120
 1.9241   133
 1.9341   107
 1.9441   123
 1.9541   136
 1.9641   132
 1.9741   144
 1.9841   140
 1.9941   151
 2.0041   134
 2.0141   138
 2.0241   135
 2.0341   144
 2.0441   132
 2.0541   142
 2.0641   114
 2.0741   107
 2.0841   115
 2.0941   112
 2.1041   130
 2.1141   112
 2.1241   117
 2.1341   124
 2.1441   108
 2.1541   107
 2.1641   102
 2.1741    92
 2.1841   101
 2.1941    94
 2.2041    90
 2.2141    92
 2.2241    94
 2.2341    99
 2.2441   100
 2.2541   108
 2.2641    89
 2.2741    93
 2.2841    92
 2.2941   103
 2.3041    85
 2.3141    99
 2.3241   112
 2.3341    99
 2.3441   105
 2.3541    94
 2.3641   112
 2.3741    96
 2.3841    82
 2.3941   104
 2.4041   101
 2.4141    93
 2.4241    86
 2.4341    91
 2.4441    94
 2.4541    91
 2.4641    83
 2.4741   101
 2.4841   108
 2.4941   103
 2.5041    87
 2.5141    82
 2.5241    85
 2.5341    86
 2.5441    84
 2.5541   104
 2.5641    98
 2.5741    90
 2.5841    93
 2.5941    97
 2.6041    99
 2.6141    98
 2.6241    90
 2.6341    94
 2.6441    99
 2.6541    89
 2.6641    89
 2.6741    92
 2.6841    91
 2.6941    84
 2.7041    81
 2.7141    73
 2.7241    89
 2.7341    77
 2.7441    81
 2.7541    92
 2.7641    70
 2.7741    94
 2.7841    95
 2.7941    97
 2.8041    99
 2.8141   103
 2.8241    94
 2.8341    81
 2.8441    78
 2.8541    81
 2.8641    83
 2.8741    85
 2.8841    82
 2.8941    98
 2.9041    92
 2.9141    99
 2.9241    83
 2.9341    73
 2.9441    92
 2.9541    89
 2.9641    86
 2.9741    76
 2.9841    92
 2.9941    71
 3.0041    89
 3.0141    78
 3.0241    84
 3.0341    79
 3.0441    81
 3.0541    70
 3.0641    72
 3.0741    79
 3.0841    75
 3.0941    84
 3.1041    66
 3.1141    81
 3.1241    82
 3.1341    82
 3.1441    74
 3.1541    73
 3.1641    68
 3.1741    78
 3.1841    65
 3.1941    90
 3.2041    77
 3.2141    80
 3.2241    71
 3.2341    93
 3.2441   107
 3.2541   110
 3.2641   120
 3.2741   145
 3.2841   168
 3.2941   156
 3.3041   172
 3.3141   139
 3.3241   152
 3.3341   166
 3.3441   135
 3.3541   149
 3.3641   121
 3.3741    98
 3.3841    82
 3.3941    73
 3.4041    78
 3.4141    82
 3.4241    69
 3.4341    59
 3.4441    71
 3.4541    64
 3.4641    58
 3.4741    73
 3.4841    71
 3.4941    64
 3.5041    74
 3.5141    84
 3.5241    83
 3.5341    89
 3.5441    90
 3.5541   108
 3.5641   107
 3.5741   132
 3.5841   159
 3.5941   180
 3.6041   195
 3.6141   314
 3.6241   384
 3.6341   419
 3.6441   489
 3.6541   585
 3.6641   666
 3.6741   723
 3.6841   780
 3.6941   748
 3.7041   739
 3.7141   660
 3.7241   577
 3.7341   529
 3.7441   449
 3.7541   318
 3.7641   259
 3.7741   216
 3.7841   161
 3.7941   117
 3.8041    99
 3.8141    81
 3.8241    68
 3.8341    62
 3.8441    72
 3.8541    62
 3.8641    51
 3.8741    58
 3.8841    69
 3.8941    67
 3.9041    81
 3.9141    84
 3.9241    71
 3.9341    84
 3.9441   105
 3.9541   116
 3.9641   116
 3.9741   130
 3.9841   147
 3.9941   150
 4.0041   115
 4.0141   164
 4.0241   154
 4.0341   147
 4.0441   125
 4.0541   109
 4.0641   109
 4.0741    96
 4.0841    93
 4.0941    78
 4.1041    82
 4.1141    77
 4.1241    63
 4.1341    60
 4.1441    53
 4.1541    57
 4.1641    58
 4.1741    61
 4.1841    47
 4.1941    66
 4.2041    52
 4.2141    70
 4.2241    75
 4.2341    54
 4.2441    53
 4.2541    45
 4.2641    56
 4.2741    57
 4.2841    45
 4.2941    69
 4.3041    64
 4.3141    59
 4.3241    55
 4.3341    55
 4.3441    73
 4.3541    65
 4.3641    79
 4.3741    88
 4.3841   123
 4.3941   105
 4.4041   148
 4.4141   206
 4.4241   253
 4.4341   307
 4.4441   369
 4.4541   460
 4.4641   537
 4.4741   600
 4.4841   630
 4.4941   698
 4.5041   731
 4.5141   738
 4.5241   716
 4.5341   625
 4.5441   589
 4.5541   494
 4.5641   453
 4.5741   324
 4.5841   250
 4.5941   231
 4.6041   170
 4.6141   167
 4.6241   132
 4.6341    89
 4.6441    98
 4.6541    80
 4.6641    76
 4.6741    76
 4.6841   103
 4.6941    49
 4.7041    64
 4.7141    62
 4.7241    74
 4.7341    66
 4.7441    64
 4.7541    67
 4.7641    63
 4.7741    83
 4.7841    95
 4.7941    93
 4.8041   110
 4.8141    96
 4.8241   101
 4.8341   109
 4.8441   117
 4.8541   121
 4.8641   149
 4.8741   152
 4.8841   167
 4.8941   174
 4.9041   220
 4.9141   218
 4.9241   194
 4.9341   234
 4.9441   215
 4.9541   202
 4.9641   165
 4.9741   173
 4.9841   149
 4.9941   151
 5.0041   131
 5.0141   129
 5.0241    97
 5.0341    97
 5.0441    93
 5.0541    75
 5.0641    87
 5.0741    55
 5.0841    79
 5.0941    79
 5.1041    53
 5.1141    72
 5.1241    73
 5.1341    74
 5.1441    68
 5.1541    71
 5.1641    64
 5.1741    73
 5.1841    82
 5.1941    87
 5.2041    76
 5.2141    72
 5.2241    70
 5.2341    63
 5.2441    73
 5.2541    78
 5.2641    74
 5.2741    62
 5.2841    69
 5.2941    84
 5.3041    80
 5.3141    92
 5.3241   111
 5.3341   116
 5.3441   125
 5.3541   138
 5.3641   130
 5.3741   163
 5.3841   161
 5.3941   162
 5.4041   167
 5.4141   181
 5.4241   158
 5.4341   173
 5.4441   161
 5.4541   138
 5.4641   139
 5.4741   112
 5.4841   112
 5.4941   116
 5.5041   120
 5.5141    96
 5.5241   100
 5.5341    85
 5.5441    90
 5.5541    71
 5.5641    73
 5.5741    67
 5.5841    77
 5.5941    85
 5.6041    68
 5.6141    81
 5.6241    71
 5.6341    85
 5.6441    75
 5.6541    70
 5.6641    67
 5.6741    71
 5.6841    90
 5.6941    83
 5.7041    89
 5.7141    89
 5.7241    87
 5.7341   100
 5.7441   124
 5.7541   139
 5.7641   132
 5.7741   169
 5.7841   229
 5.7941   259
 5.8041   336
 5.8141   364
 5.8241   466
 5.8341   517
 5.8441   636
 5.8541   691
 5.8641   693
 5.8741   788
 5.8841   815
 5.8941   851
 5.9041   831
 5.9141   762
 5.9241   710
 5.9341   626
 5.9441   603
 5.9541   500
 5.9641   501
 5.9741   357
 5.9841   318
 5.9941   273
 6.0041   217
 6.0141   164
 6.0241   166
 6.0341   129
 6.0441   133
 6.0541   134
 6.0641   131
 6.0741   136
 6.0841   139
 6.0941   132
 6.1041   131
 6.1141   159
 6.1241   162
 6.1341   173
 6.1441   165
 6.1541   184
 6.1641   230
 6.1741   232
 6.1841   283
 6.1941   337
 6.2041   472
 6.2141   640
 6.2241   829
 6.2341  1132
 6.2441  1635
 6.2541  2350
 6.2641  3271
 6.2741  4592
 6.2841  6133
 6.2941  7907
 6.3041 10285
 6.3141 12942
 6.3241 16161
 6.3341 19252
 6.3441 22901
 6.3541 25803
 6.3641 28794
 6.3741 30532
 6.3841 32491
 6.3941 33299
 6.4041 33227
 6.4141 32060
 6.4241 30041
 6.4341 27520
 6.4441 24310
 6.4541 21306
 6.4641 18090
 6.4741 14749
 6.4841 11850
 6.4941  9285
 6.5041  6841
 6.5141  5099
 6.5241  3734
 6.5341  2609
 6.5441  1837
 6.5541  1286
 6.5641   876
 6.5741   617
 6.5841   460
 6.5941   297
 6.6041   286
 6.6141   220
 6.6241   210
 6.6341   187
 6.6441   171
 6.6541   163
 6.6641   140
 6.6741   142
 6.6841   168
 6.6941   154
 6.7041   151
 6.7141   180
 6.7241   158
 6.7341   178
 6.7441   178
 6.7541   166
 6.7641   168
 6.7741   166
 6.7841   205
 6.7941   166
 6.8041   199
 6.8141   192
 6.8241   216
 6.8341   273
 6.8441   291
 6.8541   282
 6.8641   307
 6.8741   360
 6.8841   460
 6.8941   520
 6.9041   668
 6.9141   822
 6.9241  1016
 6.9341  1293
 6.9441  1577
 6.9541  1973
 6.9641  2405
 6.9741  2754
 6.9841  3227
 6.9941  3914
 7.0041  4262
 7.0141  4817
 7.0241  5144
 7.0341  5380
 7.0441  5573
 7.0541  5712
 7.0641  5651
 7.0741  5311
 7.0841  5111
 7.0941  4646
 7.1041  4122
 7.1141  3675
 7.1241  3159
 7.1341  2509
 7.1441  2089
 7.1541  1692
 7.1641  1194
 7.1741  1094
 7.1841   798
 7.1941   624
 7.2041   463
 7.2141   399
 7.2241   305
 7.2341   273
 7.2441   197
 7.2541   162
 7.2641   185
 7.2741   156
 7.2841   150
 7.2941   143
 7.3041   165
 7.3141   166
 7.3241   184
 7.3341   195
 7.3441   200
 7.3541   195
 7.3641   204
 7.3741   230
 7.3841   227
 7.3941   242
 7.4041   264
 7.4141   257
 7.4241   298
 7.4341   261
 7.4441   280
 7.4541   311
 7.4641   292
 7.4741   273
 7.4841   265
 7.4941   274
 7.5041   266
 7.5141   234
 7.5241   233
 7.5341   236
 7.5441   171
 7.5541   200
 7.5641   201
 7.5741   178
 7.5841   154
 7.5941   141
 7.6041   148
 7.6141   142
 7.6241   146
 7.6341   130
 7.6441   153
 7.6541   143
 7.6641   155
 7.6741   158
 7.6841   153
 7.6941   153
 7.7041   147
 7.7141   154
 7.7241   152
 7.7341   165
 7.7441   150
 7.7541   175
 7.7641   158
 7.7741   165
 7.7841   180
 7.7941   180
 7.8041   178
 7.8141   178
 7.8241   212
 7.8341   201
 7.8441   194
 7.8541   222
 7.8641   227
 7.8741   204
 7.8841   227
 7.8941   237
 7.9041   223
 7.9141   251
 7.9241   263
 7.9341   281
 7.9441   280
 7.9541   315
 7.9641   352
 7.9741   359
 7.9841   357
 7.9941   426
 8.0041   456
 8.0141   507
 8.0241   511
 8.0341   529
 8.0441   585
 8.0541   640
 8.0641   661
 8.0741   728
 8.0841   749
 8.0941   795
 8.1041   818
 8.1141   785
 8.1241   874
 8.1341   918
 8.1441   909
 8.1541   990
 8.1641   975
 8.1741   989
 8.1841  1026
 8.1941   997
 8.2041  1024
 8.2141  1013
 8.2241   989
 8.2341  1047
 8.2441  1088
 8.2541  1109
 8.2641  1171
 8.2741  1239
 8.2841  1257
 8.2941  1447
 8.3041  1554
 8.3141  1645
 8.3241  1822
 8.3341  1886
 8.3441  1980
 8.3541  2061
 8.3641  2172
 8.3741  2248
 8.3841  2318
 8.3941  2240
 8.4041  2235
 8.4141  2127
 8.4241  1971
 8.4341  1880
 8.4441  1740
 8.4541  1554
 8.4641  1347
 8.4741  1180
 8.4841  1090
 8.4941   881
 8.5041   764
 8.5141   700
 8.5241   599
 8.5341   545
 8.5441   486
 8.5541   476
 8.5641   448
 8.5741   455
 8.5841   475
 8.5941   446
 8.6041   487
 8.6141   412
 8.6241   417
 8.6341   460
 8.6441   458
 8.6541   457
 8.6641   439
 8.6741   434
 8.6841   403
 8.6941   376
 8.7041   344
 8.7141   371
 8.7241   316
 8.7341   310
 8.7441   288
 8.7541   273
 8.7641   275
 8.7741   283
 8.7841   231
 8.7941   244
 8.8041   222
 8.8141   216
 8.8241   219
 8.8341   219
 8.8441   208
 8.8541   227
 8.8641   238
 8.8741   202
 8.8841   221
 8.8941   235
 8.9041   241
 8.9141   247
 8.9241   244
 8.9341   240
 8.9441   246
 8.9541   243
 8.9641   239
 8.9741   235
 8.9841   264
 8.9941   263
 9.0041   262
 9.0141   246
 9.0241   285
 9.0341   259
 9.0441   250
 9.0541   263
 9.0641   278
 9.0741   328
 9.0841   314
 9.0941   341
 9.1041   326
 9.1141   357
 9.1241   377
 9.1341   407
 9.1441   379
 9.1541   428
 9.1641   429
 9.1741   475
 9.1841   463
 9.1941   473
 9.2041   486
 9.2141   556
 9.2241   562
 9.2341   616
 9.2441   595
 9.2541   660
 9.2641   688
 9.2741   691
 9.2841   703
 9.2941   782
 9.3041   778
 9.3141   843
 9.3241   854
 9.3341   859
 9.3441   888
 9.3541   920
 9.3641   965
 9.3741   929
 9.3841   957
 9.3941   973
 9.4041   941
 9.4141   974
 9.4241  1034
 9.4341   980
 9.4441   991
 9.4541  1063
 9.4641  1047
 9.4741  1063
 9.4841  1093
 9.4941  1131
 9.5041  1155
 9.5141  1198
 9.5241  1210
 9.5341  1290
 9.5441  1318
 9.5541  1431
 9.5641  1514
 9.5741  1530
 9.5841  1566
 9.5941  1676
 9.6041  1768
 9.6141  1821
 9.6241  1873
 9.6341  1935
 9.6441  2059
 9.6541  2043
 9.6641  2049
 9.6741  2120
 9.6841  2105
 9.6941  1993
 9.7041  1871
 9.7141  1773
 9.7241  1730
 9.7341  1596
 9.7441  1496
 9.7541  1406
 9.7641  1302
 9.7741  1163
 9.7841  1075
 9.7941  1015
 9.8041   908
 9.8141   880
 9.8241   850
 9.8341   807
 9.8441   800
 9.8541   811
 9.8641   835
 9.8741   812
 9.8841   809
 9.8941   882
 9.9041   874
 9.9141   848
 9.9241   897
 9.9341   920
 9.9441   913
 9.9541   864
 9.9641   882
 9.9741   816
 9.9841   843
 9.9941   787
10.0041   720
10.0141   690
10.0241   604
10.0341   570
10.0441   523
10.0541   513
10.0641   455
10.0741   395
10.0841   362
10.0941   298
10.1041   295
10.1141   269
10.1241   236
10.1341   239
10.1441   206
10.1541   201
10.1641   177
10.1741   180
10.1841   177
10.1941   182
10.2041   157
10.2141   156
10.2241   148
10.2341   145
10.2441   146
10.2541   149
10.2641   144
10.2741   138
10.2841   137
10.2941   143
10.3041   135
10.3141   123
10.3241   122
10.3341   113
10.3441   126
10.3541   116
10.3641   111
10.3741   109
10.3841   112
10.3941   127
10.4041   123
10.4141   124
10.4241   129
10.4341   122
10.4441   144
10.4541   133
10.4641   133
10.4741   139
10.4841   142
10.4941   147
10.5041   148
10.5141   160
10.5241   145
10.5341   143
10.5441   135
10.5541   149
10.5641   150
10.5741   155
10.5841   144
10.5941   151
10.6041   147
10.6141   141
10.6241   150
10.6341   160
10.6441   155
10.6541   134
10.6641   143
10.6741   152
10.6841   141
10.6941   144
10.7041   178
10.7141   170
10.7241   151
10.7341   153
10.7441   167
10.7541   173
10.7641   169
10.7741   194
10.7841   182
10.7941   179
10.8041   198
10.8141   195
10.8241   214
10.8341   197
10.8441   188
10.8541   205
10.8641   225
10.8741   209
10.8841   215
10.8941   239
10.9041   242
10.9141   233
10.9241   204
10.9341   212
10.9441   234
10.9541   234
10.9641   235
10.9741   237
10.9841   206
10.9941   207
11.0041   182
11.0141   176
11.0241   182
11.0341   202
11.0441   201
11.0541   208
11.0641   217
11.0741   221
11.0841   193
11.0941   201
11.1041   206
11.1141   205
11.1241   193
11.1341   177
11.1441   178
11.1541   192
11.1641   220
11.1741   235
11.1841   251
11.1941   262
11.2041   278
11.2141   280
11.2241   280
11.2341   309
11.2441   289
11.2541   325
11.2641   340
11.2741   327
11.2841   300
11.2941   289
11.3041   311
11.3141   285
11.3241   284
11.3341   296
11.3441   271
11.3541   248
11.3641   241
11.3741   247
11.3841   233
11.3941   206
11.4041   191
11.4141   180
11.4241   168
11.4341   180
11.4441   173
11.4541   166
11.4641   174
11.4741   161
11.4841   159
11.4941   162
11.5041   159
11.5141   138
11.5241   148
11.5341   160
11.5441   153
11.5541   152
11.5641   159
11.5741   168
11.5841   168
11.5941   171
11.6041   181
11.6141   170
11.6241   170
11.6341   161
11.6441   162
11.6541   157
11.6641   153
11.6741   169
11.6841   182
11.6941   167
11.7041   144
11.7141   159
11.7241   150
11.7341   135
11.7441   146
11.7541   145
11.7641   129
11.7741   127
11.7841   128
11.7941   126
11.8041   123
11.8141   135
11.8241   129
11.8341   121
11.8441   132
11.8541   131
11.8641   134
11.8741   130
11.8841   128
11.8941   133
11.9041   124
11.9141   133
11.9241   145
11.9341   133
11.9441   116
11.9541   122
11.9641   126
11.9741   133
11.9841   131
11.9941   129
12.0041   133
12.0141   136
12.0241   130
12.0341   112
12.0441   121
12.0541   128
12.0641   120
12.0741   112
12.0841   114
12.0941   125
12.1041   132
12.1141   131
12.1241   113
12.1341   107
12.1441   112
12.1541   126
12.1641   126
12.1741   122
12.1841   128
12.1941   126
12.2041   114
12.2141   114
12.2241   122
12.2341   118
12.2441   118
12.2541   117
12.2641   116
12.2741   136
12.2841   144
12.2941   136
12.3041   126
12.3141   119
12.3241   125
12.3341   130
12.3441   133
12.3541   127
12.3641   128
12.3741   127
12.3841   111
12.3941   108
12.4041   127
12.4141   135
12.4241   136
12.4341   146
12.4441   132
12.4541   123
12.4641   138
12.4741   133
12.4841   123
12.4941   125
12.5041   120
12.5141   122
12.5241   138
12.5341   146
12.5441   146
12.5541   134
12.5641   133
12.5741   150
12.5841   142
12.5941   138
12.6041   148
12.6141   148
12.6241   157
12.6341   163
12.6441   157
12.6541   155
12.6641   155
12.6741   155
12.6841   154
12.6941   154
12.7041   153
12.7141   152
12.7241   157
12.7341   162
12.7441   162
12.7541   158
12.7641   153
12.7741   152
12.7841   157
12.7941   162
12.8041   161
12.8141   152
12.8241   145
12.8341   143
12.8441   142
12.8541   145
12.8641   159
12.8741   168
12.8841   161
12.8941   156
12.9041   157
12.9141   156
12.9241   157
12.9341   159
12.9441   157
12.9541   151
12.9641   148
12.9741   151
12.9841   154
12.9941   153
13.0041   154
13.0141   154
13.0241   152
13.0341   156
13.0441   145
13.0541   146
13.0641   158
13.0741   156
13.0841   151
13.0941   164
13.1041   156
13.1141   145
13.1241   158
13.1341   167
13.1441   158
13.1541   160
13.1641   168
13.1741   163
13.1841   177
13.1941   168
13.2041   163
13.2141   185
13.2241   185
13.2341   185
13.2441   199
13.2541   203
13.2641   191
13.2741   182
13.2841   198
13.2941   202
13.3041   208
13.3141   217
13.3241   216
13.3341   223
13.3441   234
13.3541   239
13.3641   237
13.3741   235
13.3841   239
13.3941   245
13.4041   248
13.4141   251
13.4241   255
13.4341   250
13.4441   235
13.4541   221
13.4641   214
13.4741   209
13.4841   205
13.4941   204
13.5041   205
13.5141   200
13.5241   193
13.5341   195
13.5441   203
13.5541   203
13.5641   201
13.5741   203
13.5841   201
13.5941   195
13.6041   188
13.6141   187
13.6241   188
13.6341   190
13.6441   194
13.6541   190
13.6641   177
13.6741   180
13.6841   188
13.6941   187
13.7041   179
13.7141   187
13.7241   187
13.7341   188
13.7441   193
13.7541   189
13.7641   187
13.7741   191
13.7841   185
13.7941   181
13.8041   192
13.8141   206
13.8241   191
13.8341   182
13.8441   208
13.8541   202
13.8641   195
13.8741   202
13.8841   200
13.8941   201
13.9041   216
13.9141   219
13.9241   210
13.9341   221
13.9441   215
13.9541   207
13.9641   222
13.9741   224
13.9841   233
13.9941   243
14.0041   228
14.0141   244
14.0241   252
14.0341   236
14.0441   260
14.0541   269
14.0641   269
14.0741   286
14.0841   285
14.0941   271
14.1041   259
14.1141   276
14.1241   305
14.1341   306
14.1441   309
14.1541   305
14.1641   299
14.1741   284
14.1841   269
14.1941   280
14.2041   273
14.2141   270
14.2241   281
14.2341   268
14.2441   246
14.2541   242
14.2641   237
14.2741   246
14.2841   246
14.2941   236
14.3041   226
14.3141   232
14.3241   243
14.3341   244
14.3441   231
14.3541   220
14.3641   229
14.3741   231
14.3841   222
14.3941   223
14.4041   239
14.4141   236
14.4241   225
14.4341   238
14.4441   226
14.4541   209
14.4641   230
14.4741   236
14.4841   236
14.4941   236
14.5041   219
14.5141   228
14.5241   243
14.5341   238
14.5441   240
14.5541   238
14.5641   228
14.5741   236
14.5841   259
14.5941   258
14.6041   261
14.6141   275
14.6241   260
14.6341   245
14.6441   258
14.6541   266
14.6641   258
14.6741   250
14.6841   248
14.6941   251
14.7041   248
14.7141   252
14.7241   254
14.7341   258
14.7441   266
14.7541   260
14.7641   255
14.7741   258
14.7841   266
14.7941   284
14.8041   276
14.8141   283
14.8241   290
14.8341   271
14.8441   277
14.8541   290
14.8641   288
14.8741   309
14.8841   317
14.8941   293
14.9041   297
14.9141   317
14.9241   327
14.9341   319
14.9441   309
14.9541   298
14.9641   305
14.9741   312
14.9841   290
14.9941   287
15.0041   289
15.0141   295
15.0241   296
15.0341   298
15.0441   318
15.0541   320
15.0641   292
15.0741   292
15.0841   297
15.0941   282
15.1041   279
15.1141   281
15.1241   284
15.1341   305
15.1441   298
15.1541   266
15.1641   274
15.1741   288
15.1841   299
15.1941   314
15.2041   299
15.2141   289
15.2241   285
15.2341   274
15.2441   273
15.2541   297
15.2641   303
15.2741   290
15.2841   280
15.2941   279
15.3041   273
15.3141   282
15.3241   296
15.3341   304
15.3441   295
15.3541   277
15.3641   269
15.3741   273
15.3841   275
15.3941   305
15.4041   305
15.4141   304
15.4241   316
15.4341   303
15.4441   274
15.4541   284
15.4641   319
15.4741   317
15.4841   309
15.4941   323
15.5041   323
15.5141   336
15.5241   347
15.5341   358
15.5441   369
15.5541   383
15.5641   390
15.5741   390
15.5841   418
15.5941   445
15.6041   460
15.6141   474
15.6241   508
15.6341   529
15.6441   531
15.6541   545
15.6641   568
15.6741   609
15.6841   628
15.6941   633
15.7041   640
15.7141   689
15.7241   700
15.7341   700
15.7441   733
15.7541   741
15.7641   706
15.7741   665
15.7841   658
15.7941   665
15.8041   644
15.8141   630
15.8241   590
15.8341   582
15.8441   593
15.8541   584
15.8641   545
15.8741   492
15.8841   447
15.8941   451
15.9041   433
15.9141   427
15.9241   416
15.9341   393
15.9441   379
15.9541   380
15.9641   371
15.9741   349
15.9841   342
15.9941   342
16.0041   339
16.0141   342
16.0241   341
16.0341   335
16.0441   351
16.0541   376
16.0641   361
16.0741   336
16.0841   318
16.0941   335
16.1041   347
16.1141   347
16.1241   373
16.1341   356
16.1441   339
16.1541   353
16.1641   326
16.1741   322
16.1841   343
16.1941   338
16.2041   336
16.2141   364
16.2241   358
16.2341   330
16.2441   323
16.2541   335
16.2641   342
16.2741   339
16.2841   345
16.2941   356
16.3041   361
16.3141   357
16.3241   337
16.3341   323
16.3441   346
16.3541   338
16.3641   358
16.3741   375
16.3841   359
16.3941   369
16.4041   387
16.4141   367
16.4241   372
16.4341   374
16.4441   357
16.4541   323
16.4641   367
16.4741   376
16.4841   375
16.4941   373
16.5041   367
16.5141   349
16.5241   381
16.5341   375
16.5441   382
16.5541   376
16.5641   389
16.5741   371
16.5841   355
16.5941   380
16.6041   385
16.6141   366
16.6241   368
16.6341   399
16.6441   385
16.6541   386
16.6641   402
16.6741   394
16.6841   403
16.6941   403
16.7041   388
16.7141   384
16.7241   384
16.7341   376
16.7441   393
16.7541   393
16.7641   369
16.7741   377
16.7841   367
16.7941   364
16.8041   373
16.8141   355
16.8241   374
16.8341   378
16.8441   395
16.8541   387
16.8641   377
16.8741   374
16.8841   365
16.8941   376
16.9041   363
16.9141   359
16.9241   374
16.9341   389
16.9441   372
16.9541   388
16.9641   411
16.9741   408
16.9841   390
16.9941   381
17.0041   365
17.0141   388
17.0241   422
17.0341   409
17.0441   395
17.0541   408
17.0641   398
17.0741   380
17.0841   412
17.0941   395
17.1041   391
17.1141   406
17.1241   404
17.1341   390
17.1441   383
17.1541   364
17.1641   407
17.1741   405
17.1841   410
17.1941   418
17.2041   378
17.2141   395
17.2241   394
17.2341   382
17.2441   396
17.2541   412
17.2641   396
17.2741   416
17.2841   420
17.2941   415
17.3041   402
17.3141   391
17.3241   412
17.3341   422
17.3441   402
17.3541   419
17.3641   411
17.3741   417
17.3841   414
17.3941   418
17.4041   416
17.4141   416
17.4241   409
17.4341   414
17.4441   428
17.4541   426
17.4641   403
17.4741   431
17.4841   402
17.4941   419
17.5041   406
17.5141   415
17.5241   417
17.5341   447
17.5441   461
17.5541   424
17.5641   434
17.5741   443
17.5841   445
17.5941   482
17.6041   473
17.6141   479
17.6241   474
17.6341   456
17.6441   455
17.6541   448
17.6641   459
17.6741   454
17.6841   492
17.6941   467
17.7041   446
17.7141   452
17.7241   455
17.7341   467
17.7441   467
17.7541   464
17.7641   466
17.7741   452
17.7841   447
17.7941   445
17.8041   454
17.8141   456
17.8241   430
17.8341   408
17.8441   396
17.8541   437
17.8641   438
17.8741   429
17.8841   418
17.8941   427
17.9041   430
17.9141   405
17.9241   399
17.9341   401
17.9441   385
17.9541   437
17.9641   459
17.9741   409
17.9841   408
17.9941   461
18.0041   448
18.0141   467
18.0241   429
18.0341   427
18.0441   442
18.0541   443
18.0641   441
18.0741   436
18.0841   436
18.0941   446
18.1041   457
18.1141   443
18.1241   443
18.1341   444
18.1441   454
18.1541   430
18.1641   429
18.1741   417
18.1841   426
18.1941   441
18.2041   439
18.2141   443
18.2241   449
18.2341   425
18.2441   414
18.2541   414
18.2641   439
18.2741   456
18.2841   410
18.2941   405
18.3041   428
18.3141   453
18.3241   443
18.3341   449
18.3441   447
18.3541   436
18.3641   460
18.3741   438
18.3841   432
18.3941   393
18.4041   431
18.4141   471
18.4241   459
18.4341   436
18.4441   433
18.4541   432
18.4641   436
18.4741   433
18.4841   471
18.4941   441
18.5041   420
18.5141   427
18.5241   465
18.5341   443
18.5441   465
18.5541   455
18.5641   442
18.5741   440
18.5841   446
18.5941   475
18.6041   449
18.6141   423
18.6241   434
18.6341   445
18.6441   432
18.6541   423
18.6641   449
18.6741   440
18.6841   458
18.6941   467
18.7041   438
18.7141   439
18.7241   467
18.7341   435
18.7441   440
18.7541   458
18.7641   438
18.7741   447
18.7841   465
18.7941   464
18.8041   468
18.8141   443
18.8241   429
18.8341   418
18.8441   428
18.8541   443
18.8641   442
18.8741   466
18.8841   448
18.8941   403
18.9041   447
18.9141   457
18.9241   443
18.9341   440
18.9441   455
18.9541   463
18.9641   439
18.9741   440
18.9841   432
18.9941   435
19.0041   457
19.0141   480
19.0241   466
19.0341   447
19.0441   441
19.0541   461
19.0641   436
19.0741   457
19.0841   459
19.0941   456
19.1041   451
19.1141   445
19.1241   442
19.1341   434
19.1441   444
19.1541   468
19.1641   458
19.1741   460
19.1841   426
19.1941   456
19.2041   448
19.2141   446
19.2241   472
19.2341   479
19.2441   481
19.2541   490
19.2641   487
19.2741   463
19.2841   451
19.2941   458
19.3041   473
19.3141   459
19.3241   452
19.3341   460
19.3441   450
19.3541   476
19.3641   436
19.3741   443
19.3841   473
19.3941   463
19.4041   463
19.4141   451
19.4241   470
19.4341   474
19.4441   486
19.4541   416
19.4641   463
19.4741   467
19.4841   445
19.4941   450
19.5041   437
19.5141   430
19.5241   448
19.5341   455
19.5441   457
19.5541   445
19.5641   448
19.5741   463
19.5841   457
19.5941   443
19.6041   457
19.6141   458
19.6241   481
19.6341   483
19.6441   439
19.6541   432
19.6641   461
19.6741   464
19.6841   474
19.6941   489
19.7041   487
19.7141   462
19.7241   472
19.7341   426
19.7441   443
19.7541   470
19.7641   459
19.7741   451
19.7841   448
19.7941   430
19.8041   448
19.8141   465
19.8241   495
19.8341   462
19.8441   466
19.8541   499
19.8641   505
19.8741   470
19.8841   426
19.8941   458
19.9041   432
19.9141   451
19.9241   482
19.9341   498
19.9441   449
19.9541   466
19.9641   435
19.9741   456
19.9841   536
19.9941   474
20.0041   454
20.0141   471
20.0241   492
20.0341   451
20.0441   463
20.0541   487
20.0641   443
20.0741   456
20.0841   448
20.0941   441
20.1041   463
20.1141   481
20.1241   476
20.1341   473
20.1441   454
20.1541   468
20.1641   509
20.1741   460
20.1841   459
20.1941   471
20.2041   449
20.2141   477
20.2241   461
20.2341   485
20.2441   451
20.2541   462
20.2641   461
20.2741   464
20.2841   473
20.2941   446
20.3041   451
20.3141   466
20.3241   465
20.3341   469
20.3441   422
20.3541   472
20.3641   444
20.3741   422
20.3841   451
20.3941   442
20.4041   483
20.4141   473
20.4241   453
20.4341   457
20.4441   462
20.4541   441
20.4641   482
20.4741   464
20.4841   437
20.4941   468
20.5041   475
20.5141   473
20.5241   443
20.5341   443
20.5441   452
20.5541   453
20.5641   449
20.5741   492
20.5841   491
20.5941   469
20.6041   451
20.6141   468
20.6241   449
20.6341   485
20.6441   469
20.6541   456
20.6641   488
20.6741   492
20.6841   449
20.6941   465
20.7041   423
20.7141   417
20.7241   438
20.7341   469
20.7441   467
20.7541   470
20.7641   478
20.7741   439
20.7841   463
20.7941   459
20.8041   475
20.8141   489
20.8241   469
20.8341   482
20.8441   474
20.8541   505
20.8641   477
20.8741   476
20.8841   487
20.8941   521
20.9041   536
20.9141   542
20.9241   533
20.9341   525
20.9441   487
20.9541   534
20.9641   508
20.9741   517
20.9841   596
20.9941   612
21.0041   579
21.0141   565
21.0241   576
21.0341   606
21.0441   582
21.0541   629
21.0641   609
21.0741   627
21.0841   606
21.0941   641
21.1041   639
21.1141   624
21.1241   678
21.1341   654
21.1441   629
21.1541   590
21.1641   612
21.1741   620
21.1841   586
21.1941   613
21.2041   616
21.2141   578
21.2241   575
21.2341   599
21.2441   561
21.2541   555
21.2641   568
21.2741   543
21.2841   508
21.2941   510
21.3041   482
21.3141   522
21.3241   501
21.3341   493
21.3441   462
21.3541   458
21.3641   503
21.3741   471
21.3841   469
21.3941   444
21.4041   457
21.4141   461
21.4241   443
21.4341   476
21.4441   459
21.4541   453
21.4641   471
21.4741   470
21.4841   423
21.4941   451
21.5041   473
21.5141   457
21.5241   441
21.5341   473
21.5441   441
21.5541   465
21.5641   456
21.5741   447
21.5841   455
21.5941   468
21.6041   479
21.6141   457
21.6241   470
21.6341   448
21.6441   438
21.6541   503
21.6641   400
21.6741   444
21.6841   451
21.6941   430
21.7041   448
21.7141   430
21.7241   428
21.7341   456
21.7441   441
21.7541   444
21.7641   483
21.7741   439
21.7841   460
21.7941   427
21.8041   454
21.8141   415
21.8241   450
21.8341   420
21.8441   463
21.8541   428
21.8641   426
21.8741   450
21.8841   443
21.8941   444
21.9041   429
21.9141   429
21.9241   465
21.9341   464
21.9441   426
21.9541   430
21.9641   475
21.9741   420
21.9841   428
21.9941   467
22.0041   416
22.0141   419
22.0241   421
22.0341   437
22.0441   447
22.0541   427
22.0641   419
22.0741   410
22.0841   416
22.0941   446
22.1041   469
22.1141   418
22.1241   436
22.1341   460
22.1441   429
22.1541   416
22.1641   409
22.1741   457
22.1841   451
22.1941   449
22.2041   439
22.2141   441
22.2241   434
22.2341   438
22.2441   410
22.2541   455
22.2641   412
22.2741   456
22.2841   406
22.2941   385
22.3041   472
22.3141   440
22.3241   415
22.3341   464
22.3441   425
22.3541   432
22.3641   431
22.3741   421
22.3841   405
22.3941   413
22.4041   413
22.4141   448
22.4241   473
22.4341   445
22.4441   447
22.4541   430
22.4641   415
22.4741   411
22.4841   421
22.4941   412
22.5041   407
22.5141   442
22.5241   434
22.5341   389
22.5441   394
22.5541   427
22.5641   429
22.5741   432
22.5841   451
22.5941   435
22.6041   415
22.6141   437
22.6241   424
22.6341   406
22.6441   445
22.6541   442
22.6641   420
22.6741   403
22.6841   432
22.6941   438
22.7041   418
22.7141   419
22.7241   386
22.7341   391
22.7441   450
22.7541   406
22.7641   405
22.7741   422
22.7841   453
22.7941   411
22.8041   408
22.8141   419
22.8241   393
22.8341   427
22.8441   407
22.8541   348
22.8641   396
22.8741   453
22.8841   422
22.8941   412
22.9041   419
22.9141   404
22.9241   426
22.9341   393
22.9441   405
22.9541   428
22.9641   426
22.9741   413
22.9841   437
22.9941   385
23.0041   397
23.0141   420
23.0241   404
23.0341   418
23.0441   403
23.0541   427
23.0641   401
23.0741   421
23.0841   412
23.0941   385
23.1041   364
23.1141   455
23.1241   410
23.1341   404
23.1441   391
23.1541   407
23.1641   399
23.1741   439
23.1841   427
23.1941   410
23.2041   382
23.2141   394
23.2241   410
23.2341   410
23.2441   381
23.2541   419
23.2641   399
23.2741   404
23.2841   365
23.2941   364
23.3041   420
23.3141   415
23.3241   404
23.3341   405
23.3441   395
23.3541   370
23.3641   375
23.3741   422
23.3841   389
23.3941   391
23.4041   420
23.4141   365
23.4241   418
23.4341   399
23.4441   390
23.4541   378
23.4641   347
23.4741   413
23.4841   404
23.4941   391
23.5041   418
23.5141   350
23.5241   419
23.5341   395
23.5441   380
23.5541   385
23.5641   376
23.5741   396
23.5841   423
23.5941   393
23.6041   381
23.6141   385
23.6241   418
23.6341   396
23.6441   420
23.6541   397
23.6641   381
23.6741   368
23.6841   421
23.6941   393
23.7041   389
23.7141   408
23.7241   466
23.7341   381
23.7441   419
23.7541   398
23.7641   425
23.7741   421
23.7841   453
23.7941   411
23.8041   427
23.8141   429
23.8241   421
23.8341   415
23.8441   411
23.8541   410
23.8641   398
23.8741   423
23.8841   406
23.8941   413
23.9041   418
23.9141   418
23.9241   410
23.9341   395
23.9441   366
23.9541   379
23.9641   359
23.9741   405
23.9841   418
23.9941   395
24.0041   414
24.0141   403
24.0241   357
24.0341   400
24.0441   372
24.0541   386
24.0641   379
24.0741   378
24.0841   378
24.0941   362
24.1041   391
24.1141   390
24.1241   385
24.1341   360
24.1441   360
24.1541   377
24.1641   391
24.1741   388
24.1841   391
24.1941   358
24.2041   391
24.2141   371
24.2241   343
24.2341   366
24.2441   347
24.2541   389
24.2641   357
24.2741   374
24.2841   378
24.2941   397
24.3041   345
24.3141   388
24.3241   389
24.3341   386
24.3441   402
24.3541   354
24.3641   371
24.3741   357
24.3841   362
24.3941   371
24.4041   337
24.4141   354
24.4241   401
24.4341   368
24.4441   389
24.4541   341
24.4641   353
24.4741   362
24.4841   360
24.4941   342
24.5041   354
24.5141   366
24.5241   376
24.5341   373
24.5441   402
24.5541   383
24.5641   371
24.5741   356
24.5841   365
24.5941   390
24.6041   368
24.6141   365
24.6241   380
24.6341   358
24.6441   356
24.6541   350
24.6641   357
24.6741   349
24.6841   356
24.6941   350
24.7041   343
24.7141   342
24.7241   341
24.7341   349
24.7441   328
24.7541   353
24.7641   343
24.7741   361
24.7841   337
24.7941   328
24.8041   347
24.8141   356
24.8241   354
24.8341   364
24.8441   349
24.8541   369
24.8641   354
24.8741   352
24.8841   369
24.8941   332
24.9041   327
24.9141   316
24.9241   336
24.9341   366
24.9441   332
24.9541   321
24.9641   300
24.9741   315
24.9841   369
24.9941   353
25.0041   366
25.0141   382
25.0241   349
25.0341   353
25.0441   330
25.0541   341
25.0641   338
25.0741   361
25.0841   358
25.0941   374
25.1041   338
25.1141   340
25.1241   352
25.1341   371
25.1441   308
25.1541   306
25.1641   326
25.1741   341
25.1841   333
25.1941   344
25.2041   306
25.2141   331
25.2241   350
25.2341   323
25.2441   349
25.2541   343
25.2641   348
25.2741   345
25.2841   363
25.2941   371
25.3041   343
25.3141   356
25.3241   339
25.3341   337
25.3441   356
25.3541   334
25.3641   356
25.3741   374
25.3841   330
25.3941   309
25.4041   327
25.4141   333
25.4241   313
25.4341   301
25.4441   329
25.4541   316
25.4641   320
25.4741   364
25.4841   317
25.4941   323
25.5041   328
25.5141   333
25.5241   333
25.5341   327
25.5441   304
25.5541   319
25.5641   336
25.5741   326
25.5841   337
25.5941   329
25.6041   338
25.6141   347
25.6241   318
25.6341   315
25.6441   308
25.6541   307
25.6641   287
25.6741   297
25.6841   315
25.6941   325
25.7041   336
25.7141   309
25.7241   315
25.7341   308
25.7441   344
25.7541   321
25.7641   334
25.7741   346
25.7841   334
25.7941   313
25.8041   350
25.8141   337
25.8241   345
25.8341   321
25.8441   320
25.8541   311
25.8641   310
25.8741   300
25.8841   304
25.8941   332
25.9041   310
25.9141   304
25.9241   313
25.9341   313
25.9441   331
25.9541   319
25.9641   316
25.9741   320
25.9841   343
25.9941   290
26.0041   302
26.0141   294
26.0241   305
26.0341   306
26.0441   280
26.0541   303
26.0641   290
26.0741   305
26.0841   302
26.0941   300
26.1041   296
26.1141   275
26.1241   283
26.1341   303
26.1441   275
26.1541   288
26.1641   270
26.1741   315
26.1841   301
26.1941   312
26.2041   323
26.2141   346
26.2241   321
26.2341   283
26.2441   315
26.2541   291
26.2641   322
26.2741   275
26.2841   284
26.2941   288
26.3041   278
26.3141   285
26.3241   317
26.3341   297
26.3441   289
26.3541   304
26.3641   326
26.3741   294
26.3841   281
26.3941   281
26.4041   279
26.4141   276
26.4241   309
26.4341   293
26.4441   285
26.4541   291
26.4641   292
26.4741   314
26.4841   300
26.4941   282
26.5041   290
26.5141   254
26.5241   287
26.5341   290
26.5441   291
26.5541   282
26.5641   307
26.5741   282
26.5841   249
26.5941   276
26.6041   267
26.6141   297
26.6241   273
26.6341   279
26.6441   291
26.6541   280
26.6641   298
26.6741   280
26.6841   262
26.6941   298
26.7041   295
26.7141   280
26.7241   281
26.7341   293
26.7441   299
26.7541   292
26.7641   265
26.7741   300
26.7841   303
26.7941   292
26.8041   297
26.8141   266
26.8241   247
26.8341   264
26.8441   276
26.8541   253
26.8641   264
26.8741   249
26.8841   283
26.8941   260
26.9041   272
26.9141   282
26.9241   292
26.9341   275
26.9441   282
26.9541   311
26.9641   301
26.9741   278
26.9841   280
26.9941   279
27.0041   271
27.0141   254
27.0241   278
27.0341   268
27.0441   247
27.0541   261
27.0641   270
27.0741   269
27.0841   264
27.0941   281
27.1041   266
27.1141   269
27.1241   264
27.1341   300
27.1441   286
27.1541   283
27.1641   255
27.1741   279
27.1841   275
27.1941   275
27.2041   251
27.2141   235
27.2241   263
27.2341   261
27.2441   297
27.2541   263
27.2641   285
27.2741   284
27.2841   265
27.2941   255
27.3041   270
27.3141   265
27.3241   260
27.3341   271
27.3441   249
27.3541   252
27.3641   247
27.3741   250
27.3841   243
27.3941   261
27.4041   234
27.4141   244
27.4241   257
27.4341   260
27.4441   249
27.4541   243
27.4641   267
27.4741   257
27.4841   241
27.4941   254
27.5041   265
27.5141   252
27.5241   263
27.5341   259
27.5441   270
27.5541   254
27.5641   244
27.5741   259
27.5841   255
27.5941   237
27.6041   222
27.6141   260
27.6241   241
27.6341   264
27.6441   250
27.6541   241
27.6641   258
27.6741   237
27.6841   272
27.6941   279
27.7041   246
27.7141   237
27.7241   239
27.7341   254
27.7441   245
27.7541   262
27.7641   267
27.7741   260
27.7841   214
27.7941   245
27.8041   254
27.8141   248
27.8241   238
27.8341   258
27.8441   266
27.8541   260
27.8641   263
27.8741   275
27.8841   257
27.8941   258
27.9041   232
27.9141   237
27.9241   238
27.9341   235
27.9441   238
27.9541   235
27.9641   233
27.9741   231
27.9841   240
27.9941   227
28.0041   214
28.0141   240
28.0241   230
28.0341   239
28.0441   202
28.0541   222
28.0641   230
28.0741   240
28.0841   223
28.0941   235
28.1041   228
28.1141   237
28.1241   226
28.1341   225
28.1441   254
28.1541   232
28.1641   238
28.1741   249
28.1841   221
28.1941   255
28.2041   206
28.2141   245
28.2241   223
28.2341   250
28.2441   220
28.2541   243
28.2641   233
28.2741   234
28.2841   254
28.2941   217
28.3041   222
28.3141   204
28.3241   209
28.3341   239
28.3441   221
28.3541   234
28.3641   237
28.3741   235
28.3841   219
28.3941   218
28.4041   234
28.4141   241
28.4241   239
28.4341   215
28.4441   250
28.4541   235
28.4641   266
28.4741   229
28.4841   237
28.4941   221
28.5041   211
28.5141   230
28.5241   215
28.5341   217
28.5441   209
28.5541   229
28.5641   223
28.5741   230
28.5841   212
28.5941   230
28.6041   220
28.6141   222
28.6241   219
28.6341   205
28.6441   196
28.6541   195
28.6641   207
28.6741   212
28.6841   234
28.6941   198
28.7041   193
28.7141   210
28.7241   210
28.7341   205
28.7441   212
28.7541   231
28.7641   192
28.7741   189
28.7841   212
28.7941   232
28.8041   209
28.8141   221
28.8241   214
28.8341   206
28.8441   203
28.8541   201
28.8641   217
28.8741   230
28.8841   198
28.8941   200
28.9041   200
28.9141   215
28.9241   189
28.9341   217
28.9441   224
28.9541   212
28.9641   215
28.9741   210
28.9841   198
28.9941   191
29.0041   226
29.0141   207
29.0241   207
29.0341   187
29.0441   207
29.0541   188
29.0641   191
29.0741   222
29.0841   198
29.0941   184
29.1041   201
29.1141   198
29.1241   201
29.1341   200
29.1441   221
29.1541   202
29.1641   205
29.1741   197
29.1841   226
29.1941   198
29.2041   217
29.2141   199
29.2241   210
29.2341   191
29.2441   198
29.2541   198
29.2641   182
29.2741   216
29.2841   191
29.2941   197
29.3041   183
29.3141   171
29.3241   206
29.3341   194
29.3441   187
29.3541   215
29.3641   195
29.3741   196
29.3841   185
29.3941   206
29.4041   178
29.4141   183
29.4241   187
29.4341   207
29.4441   178
29.4541   192
29.4641   195
29.4741   164
29.4841   163
29.4941   195
29.5041   191
29.5141   173
29.5241   177
29.5341   184
29.5441   196
29.5541   172
29.5641   163
29.5741   160
29.5841   190
29.5941   185
29.6041   180
29.6141   209
29.6241   183
29.6341   192
29.6441   185
29.6541   185
29.6641   180
29.6741   184
29.6841   180
29.6941   178
29.7041   180
29.7141   189
29.7241   168
29.7341   181
29.7441   190
29.7541   209
29.7641   198
29.7741   187
29.7841   159
29.7941   184
29.8041   193
29.8141   167
29.8241   196
29.8341   202
29.8441   181
29.8541   172
29.8641   160
29.8741   180
29.8841   175
29.8941   191
29.9041   169
29.9141   159
29.9241   198
29.9341   191
29.9441   154
29.9541   185
29.9641   187
29.9741   178
29.9841   181
29.9941   187
30.0041   190
30.0141   194
30.0241   174
30.0341   194
30.0441   197
30.0541   176
30.0641   150
30.0741   165
30.0841   181
30.0941   155
30.1041   143
30.1141   164
30.1241   145
30.1341   179
30.1441   179
30.1541   187
30.1641   153
30.1741   140
30.1841   160
30.1941   176
30.2041   171
30.2141   171
30.2241   179
30.2341   182
30.2441   186
30.2541   163
30.2641   173
30.2741   163
30.2841   166
30.2941   164
30.3041   165
30.3141   171
30.3241   174
30.3341   186
30.3441   164
30.3541   184
30.3641   170
30.3741   172
30.3841   153
30.3941   186
30.4041   179
30.4141   160
30.4241   152
30.4341   150
30.4441   174
30.4541   174
30.4641   190
30.4741   159
30.4841   156
30.4941   161
30.5041   154
30.5141   166
30.5241   177
30.5341   149
30.5441   157
30.5541   182
30.5641   168
30.5741   164
30.5841   167
30.5941   163
30.6041   153
30.6141   166
30.6241   169
30.6341   158
30.6441   135
30.6541   168
30.6641   156
30.6741   176
30.6841   171
30.6941   154
30.7041   162
30.7141   184
30.7241   160
30.7341   162
30.7441   170
30.7541   138
30.7641   161
30.7741   145
30.7841   157
30.7941   161
30.8041   159
30.8141   166
30.8241   150
30.8341   167
30.8441   152
30.8541   163
30.8641   153
30.8741   139
30.8841   140
30.8941   154
30.9041   153
30.9141   163
30.9241   146
30.9341   165
30.9441   170
30.9541   167
30.9641   157
30.9741   154
30.9841   146
30.9941   153
31.0041   155
31.0141   155
31.0241   136
31.0341   153
31.0441   132
31.0541   142
31.0641   143
31.0741   145
31.0841   160
31.0941   150
31.1041   152
31.1141   135
31.1241   142
31.1341   130
31.1441   134
31.1541   145
31.1641   125
31.1741   151
31.1841   162
31.1941   132
31.2041   137
31.2141   134
31.2241   139
31.2341   141
31.2441   137
31.2541   134
31.2641   128
31.2741   161
31.2841   145
31.2941   144
31.3041   147
31.3141   133
31.3241   146
31.3341   146
31.3441   154
31.3541   132
31.3641   136
31.3741   108
31.3841   120
31.3941   123
31.4041   145
31.4141   130
31.4241   141
31.4341   137
31.4441   142
31.4541   142
31.4641   140
31.4741   134
31.4841   127
31.4941   142
31.5041   117
31.5141   124
31.5241   127
31.5341   148
31.5441   136
31.5541   136
31.5641   153
31.5741   134
31.5841   139
31.5941   162
31.6041   149
31.6141   159
31.6241   150
31.6341   118
31.6441   149
31.6541   133
31.6641   142
31.6741   115
31.6841   139
31.6941   128
31.7041   109
31.7141   125
31.7241   168
31.7341   137
31.7441   131
31.7541   123
31.7641   131
31.7741   136
31.7841   135
31.7941   152
31.8041   137
31.8141   130
31.8241   163
31.8341   134
31.8441   134
31.8541   138
31.8641   149
31.8741   141
31.8841   144
31.8941   115
31.9041   117
31.9141   146
31.9241   122
31.9341   128
31.9441   161
31.9541   139
31.9641   143
31.9741   132
31.9841   124
31.9941   146
32.0041   133
32.0141   130
32.0241   117
32.0341   116
32.0441   127
32.0541   119
32.0641   107
32.0741   120
32.0841   146
32.0941   117
32.1041   136
32.1141   124
32.1241   138
32.1341   134
32.1441   131
32.1541   123
32.1641   133
32.1741   132
32.1841   125
32.1941   144
32.2041   124
32.2141   132
32.2241   124
32.2341   118
32.2441   125
32.2541   104
32.2641   139
32.2741   107
32.2841   110
32.2941   115
32.3041   127
32.3141   128
32.3241   124
32.3341   132
32.3441   132
32.3541   119
32.3641   107
32.3741   131
32.3841   117
32.3941   114
32.4041   113
32.4141   116
32.4241   117
32.4341   114
32.4441   122
32.4541    99
32.4641   118
32.4741   138
32.4841   119
32.4941   110
32.5041   115
32.5141   124
32.5241   131
32.5341   122
32.5441   125
32.5541   117
32.5641   117
32.5741   128
32.5841   118
32.5941   119
32.6041   121
32.6141   107
32.6241   124
32.6341   120
32.6441   128
32.6541   118
32.6641    96
32.6741   109
32.6841   118
32.6941   121
32.7041   104
32.7141   111
32.7241   100
32.7341   133
32.7441    94
32.7541   127
32.7641   120
32.7741   112
32.7841   120
32.7941   116
32.8041   127
32.8141   122
32.8241   108
32.8341   116
32.8441   113
32.8541   119
32.8641   113
32.8741   111
32.8841   118
32.8941    96
32.9041   111
32.9141    91
32.9241    94
32.9341   110
32.9441    97
32.9541   105
32.9641   123
32.9741    94
32.9841   112
32.9941   118
33.0041   105
33.0141   107
33.0241   101
33.0341    91
33.0441    86
33.0541   102
33.0641    99
33.0741   108
33.0841   108
33.0941   110
33.1041   117
33.1141   110
33.1241   103
33.1341   113
33.1441   112
33.1541    95
33.1641    87
33.1741    94
33.1841    89
33.1941    87
33.2041    96
33.2141    93
33.2241   116
33.2341    91
33.2441   106
33.2541    95
33.2641    89
33.2741   108
33.2841   104
33.2941    93
33.3041   108
33.3141   101
33.3241    91
33.3341   108
33.3441   109
33.3541    91
33.3641    91
33.3741    98
33.3841   109
33.3941   102
33.4041    89
33.4141    93
33.4241   100
33.4341   103
33.4441    99
33.4541    91
33.4641    96
33.4741    89
33.4841    89
33.4941    85
33.5041    87
33.5141    82
33.5241    96
33.5341    90
33.5441    87
33.5541    93
33.5641   106
33.5741   116
33.5841    78
33.5941    99
33.6041    96
33.6141    82
33.6241    87
33.6341    91
33.6441    99
33.6541    92
33.6641    87
33.6741   100
33.6841    94
33.6941    73
33.7041    93
33.7141   108
33.7241   125
33.7341    80
33.7441    85
33.7541    88
33.7641    89
33.7741    94
33.7841    88
33.7941    81
33.8041   115
33.8141   102
33.8241    84
33.8341    85
33.8441    91
33.8541    84
33.8641    96
33.8741    92
33.8841    94
33.8941    94
33.9041    86
33.9141    87
33.9241    84
33.9341    82
33.9441    82
33.9541    89
33.9641    86
33.9741    84
33.9841   101
33.9941    87
34.0041    74
34.0141    77
34.0241    86
34.0341    99
34.0441    92
34.0541    83
34.0641    80
34.0741    92
34.0841    88
34.0941    92
34.1041    83
34.1141    73
34.1241    84
34.1341    69
34.1441    88
34.1541    94
34.1641    96
34.1741   101
34.1841    73
34.1941    86
34.2041    82
34.2141   101
34.2241    91
34.2341    85
34.2441    87
34.2541    72
34.2641    77
34.2741    84
34.2841    82
34.2941    82
34.3041    76
34.3141    82
34.3241    71
34.3341    72
34.3441    86
34.3541    85
34.3641   108
34.3741    75
34.3841    69
34.3941    70
34.4041    76
34.4141    83
34.4241    86
34.4341    87
34.4441    87
34.4541    73
34.4641    76
34.4741    76
34.4841    79
34.4941    85
34.5041    82
34.5141    84
34.5241    74
34.5341    80
34.5441    80
34.5541    77
34.5641    84
34.5741    74
34.5841    79
34.5941    77
34.6041    79
34.6141    76
34.6241    71
34.6341    74
34.6441    84
34.6541    78
34.6641    89
34.6741    88
34.6841    74
34.6941    64
34.7041    93
34.7141    75
34.7241    75
34.7341    73
34.7441    81
34.7541    61
34.7641    76
34.7741    67
34.7841    86
34.7941    53
34.8041    69
34.8141    66
34.8241    77
34.8341    79
34.8441    82
34.8541    72
34.8641    77
34.8741    75
34.8841    65
34.8941    76
34.9041    72
34.9141    67
34.9241    72
34.9341    86
34.9441    91
34.9541    70
34.9641    65
34.9741    69
34.9841    92
34.9941    69
35.0041    76
35.0141    64
35.0241    69
35.0341    64
35.0441    84
35.0541    65
35.0641    61
35.0741    74
35.0841    73
35.0941    79
35.1041    53
35.1141    63
35.1241    76
35.1341    70
35.1441    73
35.1541    71
35.1641    61
35.1741    66
35.1841    67
35.1941    66
35.2041    69
35.2141    78
35.2241    70
35.2341    60
35.2441    60
35.2541    62
35.2641    60
35.2741    59
35.2841    65
35.2941    61
35.3041    63
35.3141    74
35.3241    50
35.3341    62
35.3441    75
35.3541    56
35.3641    64
35.3741    69
35.3841    59
35.3941    71
35.4041    61
35.4141    72
35.4241    71
35.4341    69
35.4441    55
35.4541    59
35.4641    73
35.4741    72
35.4841    73
35.4941    70
35.5041    70
35.5141    76
35.5241    72
35.5341    60
35.5441    73
35.5541    61
35.5641    66
35.5741    72
35.5841    61
35.5941    61
35.6041    59
35.6141    61
35.6241    51
35.6341    67
35.6441    67
35.6541    59
35.6641    56
35.6741    70
35.6841    62
35.6941    73
35.7041    73
35.7141    68
35.7241    52
35.7341    50
35.7441    58
35.7541    54
35.7641    68
35.7741    57
35.7841    67
35.7941    64
35.8041    66
35.8141    50
35.8241    58
35.8341    52
35.8441    50
35.8541    54
35.8641    58
35.8741    59
35.8841    52
35.8941    55
35.9041    73
35.9141    64
35.9241    48
35.9341    52
35.9441    54
35.9541    69
35.9641    57
35.9741    50
35.9841    62
35.9941    58
36.0041    50
36.0141    53
36.0241    49
36.0341    57
36.0441    65
36.0541    49
36.0641    53
36.0741    54
36.0841    53
36.0941    55
36.1041    55
36.1141    59
36.1241    48
36.1341    56
36.1441    54
36.1541    52
36.1641    62
36.1741    61
36.1841    58
36.1941    51
36.2041    45
36.2141    53
36.2241    61
36.2341    44
36.2441    45
36.2541    61
36.2641    45
36.2741    44
36.2841    58
36.2941    50
36.3041    51
36.3141    50
36.3241    57
36.3341    48
36.3441    52
36.3541    48
36.3641    61
36.3741    60
36.3841    69
36.3941    61
36.4041    45
36.4141    48
36.4241    51
36.4341    49
36.4441    57
36.4541    54
36.4641    55
36.4741    62
36.4841    55
36.4941    50
36.5041    55
36.5141    43
36.5241    59
36.5341    51
36.5441    57
36.5541    48
36.5641    34
36.5741    51
36.5841    50
36.5941    61
36.6041    50
36.6141    39
36.6241    45
36.6341    50
36.6441    32
36.6541    53
36.6641    46
36.6741    52
36.6841    53
36.6941    46
36.7041    44
36.7141    55
36.7241    46
36.7341    42
36.7441    40
36.7541    40
36.7641    48
36.7741    48
36.7841    50
36.7941    46
36.8041    48
36.8141    48
36.8241    53
36.8341    44
36.8441    42
36.8541    40
36.8641    52
36.8741    46
36.8841    50
36.8941    47
36.9041    53
36.9141    56
36.9241    44
36.9341    47
36.9441    45
36.9541    59
36.9641    41
36.9741    42
36.9841    35
36.9941    52
37.0041    46
37.0141    47
37.0241    48
37.0341    38
37.0441    50
37.0541    56
37.0641    43
37.0741    34
37.0841    46
37.0941    55
37.1041    54
37.1141    36
37.1241    36
37.1341    61
37.1441    48
37.1541    48
37.1641    49
37.1741    35
37.1841    37
37.1941    45
37.2041    52
37.2141    37
37.2241    38
37.2341    33
37.2441    46
37.2541    58
37.2641    51
37.2741    43
37.2841    49
37.2941    38
37.3041    40
37.3141    38
37.3241    44
37.3341    38
37.3441    33
37.3541    39
37.3641    56
37.3741    43
37.3841    46
37.3941    38
37.4041    54
37.4141    37
37.4241    40
37.4341    38
37.4441    48
37.4541    31
37.4641    38
37.4741    35
37.4841    29
37.4941    40
37.5041    42
37.5141    38
37.5241    39
37.5341    57
37.5441    45
37.5541    34
37.5641    31
37.5741    41
37.5841    54
37.5941    29
37.6041    50
37.6141    41
37.6241    37
37.6341    39
37.6441    31
37.6541    35
37.6641    34
37.6741    39
37.6841    32
37.6941    34
37.7041    34
37.7141    36
37.7241    49
37.7341    32
37.7441    37
37.7541    37
37.7641    35
37.7741    41
37.7841    39
37.7941    20
37.8041    37
37.8141    33
37.8241    38
37.8341    34
37.8441    36
37.8541    52
37.8641    31
37.8741    38
37.8841    34
37.8941    29
37.9041    38
37.9141    29
37.9241    44
37.9341    36
37.9441    26
37.9541    37
37.9641    28
37.9741    29
37.9841    51
37.9941    31
38.0041    32
38.0141    31
38.0241    36
38.0341    40
38.0441    39
38.0541    41
38.0641    27
38.0741    35
38.0841    18
38.0941    39
38.1041    29
38.1141    23
38.1241    38
38.1341    41
38.1441    35
38.1541    23
38.1641    27
38.1741    26
38.1841    26
38.1941    36
38.2041    38
38.2141    40
38.2241    29
38.2341    24
38.2441    42
38.2541    34
38.2641    28
38.2741    34
38.2841    33
38.2941    34
38.3041    28
38.3141    38
38.3241    34
38.3341    27
38.3441    32
38.3541    26
38.3641    26
38.3741    25
38.3841    36
38.3941    24
38.4041    27
38.4141    30
38.4241    30
38.4341    39
38.4441    30
38.4541    29
38.4641    32
38.4741    30
38.4841    25
38.4941    30
38.5041    23
38.5141    28
38.5241    32
38.5341    30
38.5441    28
38.5541    21
38.5641    33
38.5741    29
38.5841    29
38.5941    24
38.6041    36
38.6141    20
38.6241    27
38.6341    22
38.6441    36
38.6541    25
38.6641    19
38.6741    29
38.6841    27
38.6941    31
38.7041    29
38.7141    37
38.7241    26
38.7341    32
38.7441    32
38.7541    30
38.7641    34
38.7741    25
38.7841    22
38.7941    28
38.8041    23
38.8141    25
38.8241    23
38.8341    29
38.8441    38
38.8541    24
38.8641    25
38.8741    25
38.8841    27
38.8941    27
38.9041    23
38.9141    28
38.9241    27
38.9341    31
38.9441    25
38.9541    28
38.9641    36
38.9741    25
38.9841    21
38.9941    26
39.0041    21
39.0141    32
39.0241    26
39.0341    20
39.0441    28
39.0541    22
39.0641    23
39.0741    34
39.0841    32
39.0941    24
39.1041    29
39.1141    31
39.1241    27
39.1341    25
39.1441    27
39.1541    20
39.1641    28
39.1741    20
39.1841    19
39.1941    25
39.2041    26
39.2141    37
39.2241    21
39.2341    26
39.2441    29
39.2541    31
39.2641    18
39.2741    14
39.2841    26
39.2941    20
39.3041    20
39.3141    16
39.3241    22
39.3341    24
39.3441    13
39.3541    23
39.3641    21
39.3741    19
39.3841    11
39.3941    27
39.4041    32
39.4141    23
39.4241    32
39.4341    24
39.4441    20
39.4541    23
39.4641    22
39.4741    24
39.4841    27
39.4941    22
39.5041    18
39.5141    27
39.5241    27
39.5341    17
39.5441    16
39.5541    19
39.5641    20
39.5741    21
39.5841    12
39.5941    19
39.6041    21
39.6141    25
39.6241    22
39.6341    16
39.6441    22
39.6541    17
39.6641    21
39.6741    24
39.6841    14
39.6941    12
39.7041    21
39.7141    18
39.7241    19
39.7341    17
39.7441    24
39.7541    18
39.7641    18
39.7741    16
39.7841    16
39.7941    20
39.8041    21
39.8141    21
39.8241    25
39.8341    24
39.8441    17
39.8541    14
39.8641    18
39.8741    18
39.8841    15
39.8941    15
39.9041    17
39.9141    25
39.9241    26
39.9341    19
39.9441    20
39.9541    13
39.9641     3
39.9741    13
39.9841    18
