Bruker Nano GmbH Berlin, Germany
Esprit 1.9

Date: 4/1/2021 4:10:12 PM
Real time: 23671
Life time: 22178
Pulse density: 90963


Detector type: XFlash 430
Window type: Custom type
Detector thickness: 0.45
Si dead layer:0.029

Calibration, lin.: 10
Calibration, abs.: -955.9
Mn FWHM: 137.05
Fano factor: 0.121
Channels: 4095

Energy Counts
-0.9559     0
-0.9459     0
-0.9359     0
-0.9259     0
-0.9159     0
-0.9059     0
-0.8959     0
-0.8859     0
-0.8759     0
-0.8659     0
-0.8559     0
-0.8459     0
-0.8359     0
-0.8259     0
-0.8159     0
-0.8059     0
-0.7959     0
-0.7859     0
-0.7759     0
-0.7659     0
-0.7559     0
-0.7459     0
-0.7359     0
-0.7259     0
-0.7159     0
-0.7059     0
-0.6959     0
-0.6859     0
-0.6759     0
-0.6659     0
-0.6559     0
-0.6459     0
-0.6359     0
-0.6259     0
-0.6159     0
-0.6059     0
-0.5959     0
-0.5859     0
-0.5759     0
-0.5659     0
-0.5559     0
-0.5459     0
-0.5359     0
-0.5259     0
-0.5159     0
-0.5059     0
-0.4959     0
-0.4859     0
-0.4759     0
-0.4659     0
-0.4559     0
-0.4459     0
-0.4359     0
-0.4259     0
-0.4159     0
-0.4059     0
-0.3959     0
-0.3859     0
-0.3759     0
-0.3659     0
-0.3559     0
-0.3459     0
-0.3359     0
-0.3259     0
-0.3159     0
-0.3059     0
-0.2959     0
-0.2859     0
-0.2759     0
-0.2659     0
-0.2559     0
-0.2459     0
-0.2359     0
-0.2259     0
-0.2159     0
-0.2059     0
-0.1959     0
-0.1859     0
-0.1759     0
-0.1659     0
-0.1559     0
-0.1459     0
-0.1359     0
-0.1259     1
-0.1159     2
-0.1059    11
-0.0959    52
-0.0859   216
-0.0759   835
-0.0659  2538
-0.0559  6467
-0.0459 14035
-0.0359 26231
-0.0259 42280
-0.0159 57751
-0.0059 68238
 0.0041 68422
 0.0141 59352
 0.0241 43199
 0.0341 27585
 0.0441 14764
 0.0541  6815
 0.0641  2843
 0.0741   937
 0.0841   287
 0.0941    94
 0.1041    21
 0.1141    15
 0.1241     9
 0.1341     6
 0.1441     6
 0.1541    11
 0.1641     0
 0.1741    29
 0.1841   194
 0.1941   372
 0.2041   365
 0.2141   351
 0.2241   373
 0.2341   398
 0.2441   389
 0.2541   404
 0.2641   389
 0.2741   403
 0.2841   386
 0.2941   331
 0.3041   356
 0.3141   359
 0.3241   377
 0.3341   361
 0.3441   367
 0.3541   370
 0.3641   376
 0.3741   359
 0.3841   363
 0.3941   353
 0.4041   356
 0.4141   352
 0.4241   342
 0.4341   331
 0.4441   317
 0.4541   301
 0.4641   303
 0.4741   313
 0.4841   339
 0.4941   309
 0.5041   318
 0.5141   320
 0.5241   330
 0.5341   324
 0.5441   335
 0.5541   297
 0.5641   288
 0.5741   294
 0.5841   300
 0.5941   314
 0.6041   317
 0.6141   307
 0.6241   295
 0.6341   305
 0.6441   286
 0.6541   288
 0.6641   294
 0.6741   297
 0.6841   309
 0.6941   300
 0.7041   291
 0.7141   296
 0.7241   291
 0.7341   260
 0.7441   264
 0.7541   281
 0.7641   266
 0.7741   268
 0.7841   274
 0.7941   260
 0.8041   248
 0.8141   251
 0.8241   272
 0.8341   275
 0.8441   260
 0.8541   258
 0.8641   259
 0.8741   253
 0.8841   259
 0.8941   275
 0.9041   252
 0.9141   255
 0.9241   227
 0.9341   266
 0.9441   267
 0.9541   246
 0.9641   263
 0.9741   261
 0.9841   225
 0.9941   242
 1.0041   249
 1.0141   243
 1.0241   249
 1.0341   261
 1.0441   231
 1.0541   254
 1.0641   245
 1.0741   238
 1.0841   242
 1.0941   254
 1.1041   232
 1.1141   224
 1.1241   247
 1.1341   229
 1.1441   234
 1.1541   241
 1.1641   227
 1.1741   240
 1.1841   217
 1.1941   231
 1.2041   230
 1.2141   234
 1.2241   263
 1.2341   235
 1.2441   247
 1.2541   207
 1.2641   244
 1.2741   231
 1.2841   236
 1.2941   219
 1.3041   215
 1.3141   209
 1.3241   208
 1.3341   218
 1.3441   222
 1.3541   208
 1.3641   214
 1.3741   231
 1.3841   211
 1.3941   222
 1.4041   215
 1.4141   206
 1.4241   222
 1.4341   209
 1.4441   223
 1.4541   248
 1.4641   226
 1.4741   234
 1.4841   222
 1.4941   215
 1.5041   227
 1.5141   223
 1.5241   202
 1.5341   219
 1.5441   221
 1.5541   249
 1.5641   228
 1.5741   207
 1.5841   228
 1.5941   219
 1.6041   187
 1.6141   200
 1.6241   210
 1.6341   232
 1.6441   229
 1.6541   259
 1.6641   292
 1.6741   353
 1.6841   471
 1.6941   552
 1.7041   676
 1.7141   769
 1.7241   834
 1.7341   842
 1.7441   875
 1.7541   841
 1.7641   763
 1.7741   666
 1.7841   543
 1.7941   447
 1.8041   387
 1.8141   334
 1.8241   278
 1.8341   262
 1.8441   265
 1.8541   244
 1.8641   252
 1.8741   226
 1.8841   234
 1.8941   257
 1.9041   200
 1.9141   218
 1.9241   232
 1.9341   221
 1.9441   239
 1.9541   250
 1.9641   234
 1.9741   236
 1.9841   247
 1.9941   237
 2.0041   236
 2.0141   254
 2.0241   245
 2.0341   245
 2.0441   244
 2.0541   239
 2.0641   193
 2.0741   209
 2.0841   211
 2.0941   208
 2.1041   181
 2.1141   198
 2.1241   214
 2.1341   195
 2.1441   181
 2.1541   189
 2.1641   216
 2.1741   196
 2.1841   200
 2.1941   219
 2.2041   218
 2.2141   212
 2.2241   189
 2.2341   209
 2.2441   208
 2.2541   197
 2.2641   199
 2.2741   212
 2.2841   199
 2.2941   179
 2.3041   184
 2.3141   206
 2.3241   187
 2.3341   176
 2.3441   185
 2.3541   182
 2.3641   175
 2.3741   198
 2.3841   161
 2.3941   172
 2.4041   189
 2.4141   181
 2.4241   176
 2.4341   186
 2.4441   190
 2.4541   174
 2.4641   178
 2.4741   175
 2.4841   180
 2.4941   184
 2.5041   149
 2.5141   188
 2.5241   184
 2.5341   158
 2.5441   165
 2.5541   174
 2.5641   158
 2.5741   154
 2.5841   157
 2.5941   177
 2.6041   155
 2.6141   174
 2.6241   146
 2.6341   163
 2.6441   158
 2.6541   162
 2.6641   156
 2.6741   179
 2.6841   170
 2.6941   185
 2.7041   150
 2.7141   174
 2.7241   169
 2.7341   169
 2.7441   156
 2.7541   173
 2.7641   178
 2.7741   159
 2.7841   161
 2.7941   206
 2.8041   155
 2.8141   161
 2.8241   180
 2.8341   168
 2.8441   168
 2.8541   196
 2.8641   162
 2.8741   163
 2.8841   173
 2.8941   157
 2.9041   166
 2.9141   143
 2.9241   164
 2.9341   144
 2.9441   174
 2.9541   164
 2.9641   154
 2.9741   152
 2.9841   162
 2.9941   147
 3.0041   160
 3.0141   190
 3.0241   159
 3.0341   169
 3.0441   163
 3.0541   140
 3.0641   148
 3.0741   143
 3.0841   174
 3.0941   152
 3.1041   153
 3.1141   131
 3.1241   137
 3.1341   145
 3.1441   149
 3.1541   132
 3.1641   149
 3.1741   155
 3.1841   151
 3.1941   146
 3.2041   171
 3.2141   175
 3.2241   189
 3.2341   197
 3.2441   264
 3.2541   322
 3.2641   380
 3.2741   414
 3.2841   429
 3.2941   527
 3.3041   537
 3.3141   494
 3.3241   514
 3.3341   448
 3.3441   436
 3.3541   412
 3.3641   337
 3.3741   335
 3.3841   270
 3.3941   215
 3.4041   171
 3.4141   176
 3.4241   148
 3.4341   128
 3.4441   119
 3.4541   126
 3.4641   125
 3.4741   154
 3.4841   165
 3.4941   159
 3.5041   124
 3.5141   159
 3.5241   161
 3.5341   184
 3.5441   205
 3.5541   229
 3.5641   247
 3.5741   280
 3.5841   339
 3.5941   406
 3.6041   446
 3.6141   595
 3.6241   641
 3.6341   824
 3.6441   994
 3.6541  1135
 3.6641  1292
 3.6741  1380
 3.6841  1431
 3.6941  1461
 3.7041  1330
 3.7141  1275
 3.7241  1123
 3.7341   941
 3.7441   781
 3.7541   629
 3.7641   521
 3.7741   378
 3.7841   285
 3.7941   232
 3.8041   178
 3.8141   156
 3.8241   127
 3.8341   124
 3.8441   118
 3.8541   124
 3.8641   113
 3.8741   125
 3.8841   132
 3.8941   120
 3.9041   130
 3.9141   150
 3.9241   154
 3.9341   141
 3.9441   197
 3.9541   208
 3.9641   201
 3.9741   235
 3.9841   252
 3.9941   282
 4.0041   276
 4.0141   251
 4.0241   270
 4.0341   275
 4.0441   234
 4.0541   244
 4.0641   211
 4.0741   187
 4.0841   143
 4.0941   160
 4.1041   138
 4.1141   139
 4.1241   135
 4.1341    97
 4.1441   114
 4.1541   101
 4.1641    93
 4.1741    83
 4.1841    96
 4.1941   100
 4.2041    97
 4.2141    94
 4.2241    98
 4.2341    85
 4.2441    88
 4.2541    90
 4.2641    90
 4.2741    96
 4.2841   106
 4.2941   100
 4.3041    88
 4.3141    78
 4.3241    96
 4.3341    90
 4.3441   110
 4.3541    99
 4.3641    99
 4.3741   112
 4.3841   126
 4.3941   158
 4.4041   154
 4.4141   168
 4.4241   190
 4.4341   237
 4.4441   258
 4.4541   269
 4.4641   297
 4.4741   332
 4.4841   364
 4.4941   354
 4.5041   374
 4.5141   330
 4.5241   323
 4.5341   315
 4.5441   282
 4.5541   259
 4.5641   217
 4.5741   221
 4.5841   160
 4.5941   155
 4.6041   170
 4.6141   145
 4.6241   128
 4.6341   124
 4.6441   134
 4.6541   118
 4.6641   104
 4.6741   111
 4.6841   121
 4.6941   124
 4.7041   117
 4.7141   128
 4.7241    97
 4.7341   135
 4.7441   120
 4.7541   124
 4.7641   121
 4.7741   116
 4.7841   126
 4.7941   155
 4.8041   150
 4.8141   125
 4.8241   154
 4.8341   151
 4.8441   166
 4.8541   169
 4.8641   155
 4.8741   177
 4.8841   150
 4.8941   177
 4.9041   144
 4.9141   165
 4.9241   185
 4.9341   184
 4.9441   176
 4.9541   162
 4.9641   143
 4.9741   149
 4.9841   149
 4.9941   125
 5.0041   112
 5.0141   109
 5.0241   126
 5.0341   128
 5.0441   117
 5.0541   131
 5.0641   135
 5.0741   116
 5.0841    89
 5.0941   104
 5.1041   101
 5.1141    85
 5.1241   111
 5.1341   118
 5.1441   115
 5.1541   126
 5.1641    90
 5.1741   116
 5.1841   114
 5.1941   102
 5.2041    99
 5.2141   128
 5.2241   100
 5.2341   102
 5.2441   113
 5.2541   120
 5.2641   116
 5.2741   115
 5.2841   124
 5.2941   136
 5.3041   125
 5.3141   140
 5.3241   141
 5.3341   142
 5.3441   167
 5.3541   193
 5.3641   202
 5.3741   197
 5.3841   228
 5.3941   240
 5.4041   268
 5.4141   253
 5.4241   277
 5.4341   223
 5.4441   228
 5.4541   212
 5.4641   218
 5.4741   182
 5.4841   163
 5.4941   157
 5.5041   156
 5.5141   144
 5.5241   145
 5.5341   122
 5.5441   115
 5.5541   111
 5.5641   122
 5.5741   139
 5.5841   110
 5.5941   112
 5.6041   127
 5.6141   136
 5.6241   119
 5.6341   121
 5.6441   118
 5.6541   120
 5.6641   123
 5.6741   127
 5.6841   113
 5.6941   103
 5.7041   135
 5.7141   130
 5.7241   122
 5.7341   148
 5.7441   151
 5.7541   158
 5.7641   186
 5.7741   196
 5.7841   189
 5.7941   218
 5.8041   256
 5.8141   323
 5.8241   374
 5.8341   408
 5.8441   452
 5.8541   513
 5.8641   543
 5.8741   584
 5.8841   573
 5.8941   551
 5.9041   615
 5.9141   603
 5.9241   600
 5.9341   518
 5.9441   488
 5.9541   422
 5.9641   345
 5.9741   320
 5.9841   263
 5.9941   242
 6.0041   213
 6.0141   196
 6.0241   167
 6.0341   176
 6.0441   192
 6.0541   150
 6.0641   152
 6.0741   153
 6.0841   166
 6.0941   169
 6.1041   166
 6.1141   174
 6.1241   157
 6.1341   152
 6.1441   204
 6.1541   179
 6.1641   179
 6.1741   217
 6.1841   264
 6.1941   251
 6.2041   359
 6.2141   439
 6.2241   593
 6.2341   756
 6.2441  1073
 6.2541  1513
 6.2641  2061
 6.2741  2922
 6.2841  3716
 6.2941  4951
 6.3041  6369
 6.3141  8033
 6.3241  9794
 6.3341 11815
 6.3441 13846
 6.3541 15905
 6.3641 17606
 6.3741 19126
 6.3841 20163
 6.3941 20353
 6.4041 20554
 6.4141 19887
 6.4241 18900
 6.4341 17139
 6.4441 15183
 6.4541 12995
 6.4641 11072
 6.4741  9180
 6.4841  7362
 6.4941  5774
 6.5041  4403
 6.5141  3324
 6.5241  2499
 6.5341  1775
 6.5441  1202
 6.5541   887
 6.5641   662
 6.5741   445
 6.5841   339
 6.5941   314
 6.6041   229
 6.6141   203
 6.6241   204
 6.6341   192
 6.6441   178
 6.6541   184
 6.6641   183
 6.6741   188
 6.6841   169
 6.6941   181
 6.7041   173
 6.7141   152
 6.7241   221
 6.7341   207
 6.7441   180
 6.7541   183
 6.7641   187
 6.7741   186
 6.7841   201
 6.7941   187
 6.8041   215
 6.8141   213
 6.8241   218
 6.8341   232
 6.8441   219
 6.8541   231
 6.8641   264
 6.8741   301
 6.8841   350
 6.8941   408
 6.9041   422
 6.9141   542
 6.9241   630
 6.9341   815
 6.9441   996
 6.9541  1155
 6.9641  1441
 6.9741  1656
 6.9841  1919
 6.9941  2289
 7.0041  2579
 7.0141  2947
 7.0241  3087
 7.0341  3268
 7.0441  3266
 7.0541  3459
 7.0641  3468
 7.0741  3165
 7.0841  3047
 7.0941  2737
 7.1041  2531
 7.1141  2200
 7.1241  1867
 7.1341  1563
 7.1441  1360
 7.1541  1138
 7.1641   901
 7.1741   720
 7.1841   561
 7.1941   480
 7.2041   382
 7.2141   329
 7.2241   299
 7.2341   286
 7.2441   255
 7.2541   269
 7.2641   224
 7.2741   230
 7.2841   243
 7.2941   241
 7.3041   285
 7.3141   277
 7.3241   265
 7.3341   307
 7.3441   294
 7.3541   335
 7.3641   356
 7.3741   378
 7.3841   388
 7.3941   425
 7.4041   406
 7.4141   405
 7.4241   435
 7.4341   455
 7.4441   481
 7.4541   478
 7.4641   472
 7.4741   487
 7.4841   523
 7.4941   474
 7.5041   409
 7.5141   429
 7.5241   393
 7.5341   371
 7.5441   357
 7.5541   324
 7.5641   278
 7.5741   320
 7.5841   307
 7.5941   247
 7.6041   277
 7.6141   258
 7.6241   239
 7.6341   228
 7.6441   249
 7.6541   236
 7.6641   241
 7.6741   235
 7.6841   256
 7.6941   230
 7.7041   280
 7.7141   226
 7.7241   254
 7.7341   260
 7.7441   298
 7.7541   262
 7.7641   280
 7.7741   267
 7.7841   277
 7.7941   284
 7.8041   296
 7.8141   277
 7.8241   334
 7.8341   303
 7.8441   343
 7.8541   322
 7.8641   337
 7.8741   365
 7.8841   348
 7.8941   417
 7.9041   396
 7.9141   427
 7.9241   460
 7.9341   416
 7.9441   460
 7.9541   523
 7.9641   570
 7.9741   550
 7.9841   583
 7.9941   649
 8.0041   701
 8.0141   716
 8.0241   719
 8.0341   808
 8.0441   878
 8.0541   945
 8.0641  1045
 8.0741  1056
 8.0841  1138
 8.0941  1174
 8.1041  1259
 8.1141  1302
 8.1241  1369
 8.1341  1441
 8.1441  1484
 8.1541  1504
 8.1641  1439
 8.1741  1619
 8.1841  1582
 8.1941  1700
 8.2041  1652
 8.2141  1655
 8.2241  1643
 8.2341  1645
 8.2441  1680
 8.2541  1737
 8.2641  1811
 8.2741  1926
 8.2841  1992
 8.2941  2091
 8.3041  2226
 8.3141  2408
 8.3241  2573
 8.3341  2706
 8.3441  2974
 8.3541  3079
 8.3641  3210
 8.3741  3223
 8.3841  3172
 8.3941  3191
 8.4041  3153
 8.4141  3037
 8.4241  2826
 8.4341  2653
 8.4441  2443
 8.4541  2260
 8.4641  1958
 8.4741  1659
 8.4841  1442
 8.4941  1223
 8.5041  1067
 8.5141   917
 8.5241   751
 8.5341   649
 8.5441   554
 8.5541   508
 8.5641   444
 8.5741   415
 8.5841   402
 8.5941   407
 8.6041   407
 8.6141   350
 8.6241   395
 8.6341   403
 8.6441   374
 8.6541   366
 8.6641   367
 8.6741   333
 8.6841   366
 8.6941   365
 8.7041   349
 8.7141   383
 8.7241   359
 8.7341   359
 8.7441   360
 8.7541   347
 8.7641   358
 8.7741   355
 8.7841   344
 8.7941   352
 8.8041   331
 8.8141   380
 8.8241   370
 8.8341   368
 8.8441   332
 8.8541   324
 8.8641   343
 8.8741   371
 8.8841   368
 8.8941   381
 8.9041   413
 8.9141   360
 8.9241   371
 8.9341   395
 8.9441   357
 8.9541   357
 8.9641   401
 8.9741   403
 8.9841   415
 8.9941   404
 9.0041   428
 9.0141   454
 9.0241   447
 9.0341   431
 9.0441   442
 9.0541   469
 9.0641   491
 9.0741   505
 9.0841   525
 9.0941   493
 9.1041   589
 9.1141   559
 9.1241   571
 9.1341   604
 9.1441   617
 9.1541   671
 9.1641   694
 9.1741   709
 9.1841   765
 9.1941   764
 9.2041   811
 9.2141   838
 9.2241   880
 9.2341   889
 9.2441   986
 9.2541  1099
 9.2641  1121
 9.2741  1135
 9.2841  1214
 9.2941  1293
 9.3041  1309
 9.3141  1359
 9.3241  1419
 9.3341  1438
 9.3441  1467
 9.3541  1563
 9.3641  1464
 9.3741  1584
 9.3841  1605
 9.3941  1680
 9.4041  1663
 9.4141  1741
 9.4241  1777
 9.4341  1696
 9.4441  1671
 9.4541  1711
 9.4641  1702
 9.4741  1717
 9.4841  1734
 9.4941  1845
 9.5041  1776
 9.5141  1814
 9.5241  1903
 9.5341  1911
 9.5441  1959
 9.5541  2039
 9.5641  2184
 9.5741  2270
 9.5841  2416
 9.5941  2591
 9.6041  2543
 9.6141  2677
 9.6241  2786
 9.6341  2886
 9.6441  2953
 9.6541  3027
 9.6641  3043
 9.6741  2989
 9.6841  2910
 9.6941  2857
 9.7041  2808
 9.7141  2653
 9.7241  2501
 9.7341  2333
 9.7441  2081
 9.7541  1915
 9.7641  1823
 9.7741  1743
 9.7841  1649
 9.7941  1562
 9.8041  1457
 9.8141  1371
 9.8241  1311
 9.8341  1254
 9.8441  1228
 9.8541  1273
 9.8641  1291
 9.8741  1277
 9.8841  1287
 9.8941  1396
 9.9041  1358
 9.9141  1439
 9.9241  1404
 9.9341  1447
 9.9441  1494
 9.9541  1473
 9.9641  1423
 9.9741  1403
 9.9841  1326
 9.9941  1241
10.0041  1158
10.0141  1111
10.0241   973
10.0341   938
10.0441   858
10.0541   713
10.0641   646
10.0741   593
10.0841   569
10.0941   508
10.1041   462
10.1141   411
10.1241   392
10.1341   364
10.1441   338
10.1541   303
10.1641   324
10.1741   283
10.1841   292
10.1941   288
10.2041   277
10.2141   260
10.2241   263
10.2341   251
10.2441   230
10.2541   223
10.2641   219
10.2741   202
10.2841   215
10.2941   233
10.3041   223
10.3141   201
10.3241   203
10.3341   206
10.3441   209
10.3541   200
10.3641   197
10.3741   177
10.3841   193
10.3941   216
10.4041   199
10.4141   199
10.4241   209
10.4341   188
10.4441   196
10.4541   219
10.4641   210
10.4741   215
10.4841   179
10.4941   197
10.5041   219
10.5141   183
10.5241   211
10.5341   215
10.5441   224
10.5541   234
10.5641   228
10.5741   202
10.5841   243
10.5941   220
10.6041   221
10.6141   213
10.6241   218
10.6341   231
10.6441   229
10.6541   230
10.6641   238
10.6741   236
10.6841   231
10.6941   218
10.7041   219
10.7141   249
10.7241   247
10.7341   255
10.7441   271
10.7541   269
10.7641   249
10.7741   287
10.7841   291
10.7941   297
10.8041   305
10.8141   301
10.8241   316
10.8341   295
10.8441   297
10.8541   323
10.8641   329
10.8741   342
10.8841   357
10.8941   357
10.9041   344
10.9141   353
10.9241   320
10.9341   339
10.9441   338
10.9541   333
10.9641   358
10.9741   357
10.9841   341
10.9941   341
11.0041   340
11.0141   337
11.0241   328
11.0341   322
11.0441   311
11.0541   335
11.0641   340
11.0741   333
11.0841   309
11.0941   305
11.1041   312
11.1141   343
11.1241   326
11.1341   324
11.1441   336
11.1541   385
11.1641   355
11.1741   356
11.1841   407
11.1941   395
11.2041   407
11.2141   422
11.2241   437
11.2341   460
11.2441   472
11.2541   470
11.2641   488
11.2741   474
11.2841   483
11.2941   491
11.3041   488
11.3141   469
11.3241   458
11.3341   444
11.3441   420
11.3541   393
11.3641   386
11.3741   360
11.3841   336
11.3941   342
11.4041   311
11.4141   302
11.4241   293
11.4341   281
11.4441   270
11.4541   265
11.4641   279
11.4741   254
11.4841   254
11.4941   253
11.5041   245
11.5141   255
11.5241   257
11.5341   243
11.5441   256
11.5541   266
11.5641   245
11.5741   227
11.5841   249
11.5941   272
11.6041   266
11.6141   253
11.6241   247
11.6341   278
11.6441   263
11.6541   252
11.6641   239
11.6741   243
11.6841   225
11.6941   214
11.7041   229
11.7141   231
11.7241   207
11.7341   209
11.7441   209
11.7541   202
11.7641   203
11.7741   192
11.7841   194
11.7941   193
11.8041   176
11.8141   185
11.8241   173
11.8341   181
11.8441   185
11.8541   184
11.8641   180
11.8741   174
11.8841   168
11.8941   177
11.9041   186
11.9141   176
11.9241   159
11.9341   178
11.9441   167
11.9541   169
11.9641   179
11.9741   183
11.9841   196
11.9941   190
12.0041   196
12.0141   183
12.0241   172
12.0341   201
12.0441   190
12.0541   178
12.0641   192
12.0741   192
12.0841   191
12.0941   188
12.1041   191
12.1141   175
12.1241   178
12.1341   197
12.1441   186
12.1541   164
12.1641   184
12.1741   190
12.1841   177
12.1941   159
12.2041   167
12.2141   179
12.2241   184
12.2341   183
12.2441   170
12.2541   170
12.2641   167
12.2741   174
12.2841   179
12.2941   184
12.3041   182
12.3141   174
12.3241   173
12.3341   178
12.3441   171
12.3541   186
12.3641   181
12.3741   183
12.3841   183
12.3941   171
12.4041   183
12.4141   176
12.4241   179
12.4341   185
12.4441   171
12.4541   165
12.4641   180
12.4741   201
12.4841   203
12.4941   188
12.5041   181
12.5141   182
12.5241   182
12.5341   190
12.5441   196
12.5541   192
12.5641   202
12.5741   199
12.5841   199
12.5941   202
12.6041   196
12.6141   206
12.6241   210
12.6341   214
12.6441   217
12.6541   226
12.6641   199
12.6741   195
12.6841   201
12.6941   196
12.7041   208
12.7141   212
12.7241   205
12.7341   204
12.7441   212
12.7541   208
12.7641   201
12.7741   202
12.7841   199
12.7941   195
12.8041   198
12.8141   204
12.8241   204
12.8341   203
12.8441   211
12.8541   224
12.8641   224
12.8741   214
12.8841   210
12.8941   212
12.9041   213
12.9141   213
12.9241   214
12.9341   214
12.9441   210
12.9541   207
12.9641   201
12.9741   195
12.9841   203
12.9941   223
13.0041   216
13.0141   200
13.0241   209
13.0341   226
13.0441   227
13.0541   209
13.0641   221
13.0741   224
13.0841   214
13.0941   222
13.1041   217
13.1141   212
13.1241   222
13.1341   220
13.1441   226
13.1541   246
13.1641   264
13.1741   259
13.1841   248
13.1941   247
13.2041   262
13.2141   266
13.2241   269
13.2341   298
13.2441   309
13.2541   317
13.2641   341
13.2741   362
13.2841   364
13.2941   382
13.3041   401
13.3141   421
13.3241   432
13.3341   442
13.3441   479
13.3541   500
13.3641   488
13.3741   467
13.3841   490
13.3941   501
13.4041   459
13.4141   467
13.4241   478
13.4341   459
13.4441   444
13.4541   431
13.4641   401
13.4741   373
13.4841   368
13.4941   348
13.5041   328
13.5141   313
13.5241   291
13.5341   297
13.5441   284
13.5541   273
13.5641   294
13.5741   297
13.5841   282
13.5941   273
13.6041   259
13.6141   246
13.6241   247
13.6341   255
13.6441   247
13.6541   243
13.6641   252
13.6741   271
13.6841   274
13.6941   269
13.7041   269
13.7141   243
13.7241   241
13.7341   268
13.7441   267
13.7541   257
13.7641   265
13.7741   271
13.7841   270
13.7941   279
13.8041   277
13.8141   272
13.8241   271
13.8341   255
13.8441   257
13.8541   289
13.8641   288
13.8741   278
13.8841   292
13.8941   297
13.9041   340
13.9141   367
13.9241   387
13.9341   405
13.9441   452
13.9541   536
13.9641   574
13.9741   606
13.9841   692
13.9941   776
14.0041   855
14.0141   963
14.0241  1075
14.0341  1192
14.0441  1296
14.0541  1413
14.0641  1516
14.0741  1644
14.0841  1754
14.0941  1798
14.1041  1884
14.1141  1977
14.1241  2046
14.1341  2062
14.1441  2057
14.1541  2092
14.1641  2040
14.1741  1990
14.1841  1963
14.1941  1835
14.2041  1720
14.2141  1621
14.2241  1528
14.2341  1407
14.2441  1248
14.2541  1110
14.2641  1004
14.2741   914
14.2841   793
14.2941   712
14.3041   640
14.3141   578
14.3241   547
14.3341   477
14.3441   414
14.3541   382
14.3641   362
14.3741   343
14.3841   316
14.3941   304
14.4041   303
14.4141   302
14.4241   284
14.4341   291
14.4441   308
14.4541   296
14.4641   290
14.4741   280
14.4841   295
14.4941   298
14.5041   291
14.5141   307
14.5241   298
14.5341   295
14.5441   307
14.5541   294
14.5641   303
14.5741   320
14.5841   288
14.5941   280
14.6041   300
14.6141   311
14.6241   293
14.6341   282
14.6441   293
14.6541   291
14.6641   279
14.6741   281
14.6841   280
14.6941   289
14.7041   295
14.7141   280
14.7241   286
14.7341   312
14.7441   313
14.7541   306
14.7641   306
14.7741   317
14.7841   300
14.7941   307
14.8041   326
14.8141   321
14.8241   313
14.8341   324
14.8441   325
14.8541   325
14.8641   341
14.8741   348
14.8841   342
14.8941   347
14.9041   348
14.9141   347
14.9241   350
14.9341   347
14.9441   346
14.9541   346
14.9641   355
14.9741   375
14.9841   380
14.9941   378
15.0041   357
15.0141   334
15.0241   343
15.0341   340
15.0441   330
15.0541   333
15.0641   316
15.0741   312
15.0841   328
15.0941   348
15.1041   336
15.1141   313
15.1241   322
15.1341   334
15.1441   313
15.1541   305
15.1641   326
15.1741   331
15.1841   295
15.1941   304
15.2041   342
15.2141   338
15.2241   316
15.2341   326
15.2441   338
15.2541   341
15.2641   338
15.2741   330
15.2841   333
15.2941   318
15.3041   322
15.3141   317
15.3241   305
15.3341   314
15.3441   327
15.3541   324
15.3641   332
15.3741   318
15.3841   316
15.3941   334
15.4041   331
15.4141   343
15.4241   341
15.4341   349
15.4441   345
15.4541   342
15.4641   332
15.4741   346
15.4841   354
15.4941   362
15.5041   362
15.5141   336
15.5241   325
15.5341   334
15.5441   330
15.5541   328
15.5641   350
15.5741   374
15.5841   393
15.5941   395
15.6041   401
15.6141   420
15.6241   433
15.6341   444
15.6441   450
15.6541   478
15.6641   513
15.6741   509
15.6841   542
15.6941   548
15.7041   569
15.7141   621
15.7241   608
15.7341   595
15.7441   666
15.7541   683
15.7641   682
15.7741   688
15.7841   721
15.7941   735
15.8041   753
15.8141   810
15.8241   768
15.8341   721
15.8441   711
15.8541   714
15.8641   700
15.8741   680
15.8841   670
15.8941   612
15.9041   622
15.9141   643
15.9241   628
15.9341   566
15.9441   524
15.9541   503
15.9641   510
15.9741   510
15.9841   485
15.9941   443
16.0041   440
16.0141   420
16.0241   411
16.0341   417
16.0441   420
16.0541   431
16.0641   427
16.0741   421
16.0841   427
16.0941   419
16.1041   417
16.1141   424
16.1241   418
16.1341   418
16.1441   396
16.1541   400
16.1641   411
16.1741   420
16.1841   425
16.1941   434
16.2041   413
16.2141   403
16.2241   387
16.2341   360
16.2441   388
16.2541   412
16.2641   390
16.2741   375
16.2841   384
16.2941   382
16.3041   398
16.3141   403
16.3241   389
16.3341   399
16.3441   415
16.3541   414
16.3641   373
16.3741   374
16.3841   359
16.3941   352
16.4041   363
16.4141   395
16.4241   391
16.4341   399
16.4441   403
16.4541   397
16.4641   367
16.4741   383
16.4841   418
16.4941   383
16.5041   393
16.5141   409
16.5241   398
16.5341   399
16.5441   372
16.5541   389
16.5641   409
16.5741   434
16.5841   424
16.5941   392
16.6041   423
16.6141   426
16.6241   430
16.6341   438
16.6441   412
16.6541   397
16.6641   410
16.6741   425
16.6841   426
16.6941   377
16.7041   372
16.7141   400
16.7241   437
16.7341   422
16.7441   405
16.7541   417
16.7641   417
16.7741   420
16.7841   388
16.7941   414
16.8041   439
16.8141   445
16.8241   393
16.8341   408
16.8441   420
16.8541   405
16.8641   412
16.8741   419
16.8841   427
16.8941   417
16.9041   424
16.9141   422
16.9241   437
16.9341   405
16.9441   396
16.9541   446
16.9641   442
16.9741   414
16.9841   403
16.9941   447
17.0041   417
17.0141   399
17.0241   395
17.0341   441
17.0441   424
17.0541   427
17.0641   447
17.0741   419
17.0841   451
17.0941   441
17.1041   444
17.1141   445
17.1241   444
17.1341   412
17.1441   416
17.1541   431
17.1641   430
17.1741   415
17.1841   470
17.1941   453
17.2041   462
17.2141   462
17.2241   441
17.2341   428
17.2441   470
17.2541   475
17.2641   482
17.2741   434
17.2841   433
17.2941   448
17.3041   458
17.3141   428
17.3241   464
17.3341   450
17.3441   444
17.3541   473
17.3641   476
17.3741   497
17.3841   454
17.3941   480
17.4041   500
17.4141   474
17.4241   477
17.4341   457
17.4441   473
17.4541   496
17.4641   495
17.4741   503
17.4841   488
17.4941   477
17.5041   507
17.5141   509
17.5241   485
17.5341   486
17.5441   487
17.5541   483
17.5641   476
17.5741   483
17.5841   484
17.5941   483
17.6041   516
17.6141   528
17.6241   495
17.6341   479
17.6441   505
17.6541   464
17.6641   483
17.6741   477
17.6841   454
17.6941   476
17.7041   517
17.7141   493
17.7241   466
17.7341   506
17.7441   507
17.7541   477
17.7641   502
17.7741   507
17.7841   497
17.7941   490
17.8041   493
17.8141   501
17.8241   487
17.8341   500
17.8441   472
17.8541   478
17.8641   487
17.8741   486
17.8841   492
17.8941   475
17.9041   479
17.9141   513
17.9241   518
17.9341   488
17.9441   500
17.9541   497
17.9641   521
17.9741   518
17.9841   504
17.9941   514
18.0041   528
18.0141   502
18.0241   517
18.0341   506
18.0441   530
18.0541   505
18.0641   516
18.0741   513
18.0841   525
18.0941   523
18.1041   511
18.1141   506
18.1241   515
18.1341   523
18.1441   530
18.1541   521
18.1641   510
18.1741   520
18.1841   524
18.1941   529
18.2041   552
18.2141   544
18.2241   528
18.2341   539
18.2441   525
18.2541   498
18.2641   496
18.2741   497
18.2841   523
18.2941   521
18.3041   533
18.3141   489
18.3241   516
18.3341   518
18.3441   517
18.3541   528
18.3641   534
18.3741   505
18.3841   517
18.3941   523
18.4041   537
18.4141   552
18.4241   535
18.4341   554
18.4441   508
18.4541   510
18.4641   566
18.4741   531
18.4841   550
18.4941   510
18.5041   521
18.5141   561
18.5241   521
18.5341   521
18.5441   503
18.5541   500
18.5641   533
18.5741   496
18.5841   538
18.5941   534
18.6041   547
18.6141   531
18.6241   541
18.6341   525
18.6441   557
18.6541   556
18.6641   551
18.6741   554
18.6841   532
18.6941   513
18.7041   563
18.7141   568
18.7241   571
18.7341   556
18.7441   558
18.7541   569
18.7641   554
18.7741   588
18.7841   549
18.7941   557
18.8041   529
18.8141   530
18.8241   545
18.8341   566
18.8441   542
18.8541   522
18.8641   544
18.8741   550
18.8841   555
18.8941   565
18.9041   562
18.9141   585
18.9241   576
18.9341   592
18.9441   585
18.9541   571
18.9641   579
18.9741   564
18.9841   595
18.9941   565
19.0041   568
19.0141   590
19.0241   558
19.0341   581
19.0441   565
19.0541   595
19.0641   577
19.0741   535
19.0841   552
19.0941   587
19.1041   571
19.1141   566
19.1241   585
19.1341   555
19.1441   564
19.1541   556
19.1641   555
19.1741   572
19.1841   571
19.1941   594
19.2041   555
19.2141   558
19.2241   577
19.2341   534
19.2441   558
19.2541   577
19.2641   577
19.2741   594
19.2841   581
19.2941   590
19.3041   576
19.3141   586
19.3241   555
19.3341   545
19.3441   574
19.3541   575
19.3641   569
19.3741   571
19.3841   603
19.3941   580
19.4041   583
19.4141   575
19.4241   573
19.4341   605
19.4441   596
19.4541   578
19.4641   579
19.4741   640
19.4841   583
19.4941   619
19.5041   602
19.5141   601
19.5241   587
19.5341   583
19.5441   584
19.5541   564
19.5641   580
19.5741   587
19.5841   623
19.5941   573
19.6041   580
19.6141   609
19.6241   602
19.6341   606
19.6441   582
19.6541   573
19.6641   602
19.6741   617
19.6841   610
19.6941   580
19.7041   566
19.7141   582
19.7241   603
19.7341   617
19.7441   623
19.7541   604
19.7641   630
19.7741   599
19.7841   614
19.7941   633
19.8041   641
19.8141   637
19.8241   607
19.8341   601
19.8441   596
19.8541   603
19.8641   618
19.8741   605
19.8841   591
19.8941   637
19.9041   630
19.9141   621
19.9241   654
19.9341   635
19.9441   634
19.9541   586
19.9641   624
19.9741   632
19.9841   606
19.9941   672
20.0041   605
20.0141   587
20.0241   616
20.0341   630
20.0441   621
20.0541   580
20.0641   620
20.0741   606
20.0841   631
20.0941   623
20.1041   620
20.1141   642
20.1241   621
20.1341   601
20.1441   611
20.1541   638
20.1641   606
20.1741   590
20.1841   628
20.1941   613
20.2041   636
20.2141   636
20.2241   635
20.2341   605
20.2441   624
20.2541   623
20.2641   650
20.2741   623
20.2841   647
20.2941   612
20.3041   636
20.3141   599
20.3241   634
20.3341   598
20.3441   604
20.3541   609
20.3641   589
20.3741   605
20.3841   630
20.3941   641
20.4041   628
20.4141   626
20.4241   651
20.4341   635
20.4441   633
20.4541   656
20.4641   668
20.4741   622
20.4841   611
20.4941   641
20.5041   625
20.5141   649
20.5241   642
20.5341   612
20.5441   625
20.5541   591
20.5641   596
20.5741   633
20.5841   596
20.5941   633
20.6041   616
20.6141   634
20.6241   651
20.6341   615
20.6441   626
20.6541   628
20.6641   652
20.6741   665
20.6841   615
20.6941   628
20.7041   654
20.7141   617
20.7241   600
20.7341   653
20.7441   640
20.7541   713
20.7641   665
20.7741   649
20.7841   678
20.7941   667
20.8041   642
20.8141   632
20.8241   659
20.8341   687
20.8441   687
20.8541   707
20.8641   657
20.8741   657
20.8841   745
20.8941   707
20.9041   754
20.9141   725
20.9241   781
20.9341   800
20.9441   782
20.9541   870
20.9641   850
20.9741   907
20.9841   903
20.9941   870
21.0041   918
21.0141   921
21.0241   934
21.0341   957
21.0441   930
21.0541   972
21.0641   983
21.0741   984
21.0841   996
21.0941   984
21.1041   982
21.1141  1045
21.1241  1000
21.1341  1036
21.1441  1031
21.1541   998
21.1641   990
21.1741  1032
21.1841  1059
21.1941   978
21.2041  1019
21.2141   958
21.2241   973
21.2341   893
21.2441   958
21.2541   891
21.2641   903
21.2741   826
21.2841   850
21.2941   871
21.3041   791
21.3141   838
21.3241   739
21.3341   709
21.3441   746
21.3541   700
21.3641   693
21.3741   688
21.3841   708
21.3941   689
21.4041   688
21.4141   679
21.4241   668
21.4341   640
21.4441   705
21.4541   661
21.4641   665
21.4741   683
21.4841   702
21.4941   684
21.5041   683
21.5141   659
21.5241   615
21.5341   652
21.5441   638
21.5541   640
21.5641   654
21.5741   665
21.5841   660
21.5941   643
21.6041   681
21.6141   691
21.6241   648
21.6341   647
21.6441   656
21.6541   665
21.6641   659
21.6741   681
21.6841   659
21.6941   668
21.7041   628
21.7141   652
21.7241   678
21.7341   661
21.7441   640
21.7541   654
21.7641   606
21.7741   654
21.7841   609
21.7941   674
21.8041   678
21.8141   656
21.8241   647
21.8341   666
21.8441   656
21.8541   668
21.8641   688
21.8741   681
21.8841   699
21.8941   692
21.9041   681
21.9141   681
21.9241   660
21.9341   644
21.9441   707
21.9541   653
21.9641   691
21.9741   663
21.9841   707
21.9941   658
22.0041   646
22.0141   679
22.0241   684
22.0341   625
22.0441   697
22.0541   658
22.0641   654
22.0741   655
22.0841   699
22.0941   658
22.1041   650
22.1141   670
22.1241   658
22.1341   654
22.1441   670
22.1541   645
22.1641   648
22.1741   675
22.1841   719
22.1941   644
22.2041   648
22.2141   700
22.2241   709
22.2341   644
22.2441   624
22.2541   648
22.2641   650
22.2741   654
22.2841   673
22.2941   627
22.3041   661
22.3141   690
22.3241   666
22.3341   636
22.3441   655
22.3541   659
22.3641   661
22.3741   676
22.3841   664
22.3941   666
22.4041   667
22.4141   680
22.4241   637
22.4341   660
22.4441   650
22.4541   673
22.4641   681
22.4741   635
22.4841   673
22.4941   673
22.5041   649
22.5141   687
22.5241   658
22.5341   672
22.5441   700
22.5541   659
22.5641   650
22.5741   640
22.5841   653
22.5941   639
22.6041   655
22.6141   606
22.6241   651
22.6341   670
22.6441   668
22.6541   664
22.6641   707
22.6741   650
22.6841   649
22.6941   708
22.7041   669
22.7141   676
22.7241   662
22.7341   652
22.7441   615
22.7541   665
22.7641   651
22.7741   655
22.7841   678
22.7941   652
22.8041   683
22.8141   689
22.8241   689
22.8341   685
22.8441   622
22.8541   675
22.8641   694
22.8741   688
22.8841   653
22.8941   648
22.9041   641
22.9141   628
22.9241   676
22.9341   646
22.9441   670
22.9541   614
22.9641   622
22.9741   669
22.9841   666
22.9941   650
23.0041   688
23.0141   627
23.0241   629
23.0341   645
23.0441   632
23.0541   676
23.0641   671
23.0741   681
23.0841   656
23.0941   646
23.1041   632
23.1141   645
23.1241   614
23.1341   650
23.1441   672
23.1541   670
23.1641   664
23.1741   668
23.1841   664
23.1941   653
23.2041   689
23.2141   618
23.2241   654
23.2341   679
23.2441   651
23.2541   627
23.2641   649
23.2741   655
23.2841   619
23.2941   617
23.3041   647
23.3141   645
23.3241   668
23.3341   649
23.3441   676
23.3541   621
23.3641   647
23.3741   640
23.3841   665
23.3941   658
23.4041   639
23.4141   631
23.4241   646
23.4341   663
23.4441   684
23.4541   645
23.4641   625
23.4741   674
23.4841   674
23.4941   615
23.5041   697
23.5141   634
23.5241   715
23.5341   650
23.5441   631
23.5541   634
23.5641   668
23.5741   614
23.5841   650
23.5941   613
23.6041   687
23.6141   681
23.6241   715
23.6341   670
23.6441   688
23.6541   675
23.6641   703
23.6741   715
23.6841   707
23.6941   674
23.7041   693
23.7141   699
23.7241   691
23.7341   717
23.7441   727
23.7541   708
23.7641   684
23.7741   747
23.7841   726
23.7941   700
23.8041   712
23.8141   693
23.8241   700
23.8341   694
23.8441   711
23.8541   720
23.8641   728
23.8741   728
23.8841   685
23.8941   676
23.9041   712
23.9141   672
23.9241   672
23.9341   668
23.9441   684
23.9541   648
23.9641   691
23.9741   663
23.9841   673
23.9941   651
24.0041   657
24.0141   629
24.0241   644
24.0341   666
24.0441   666
24.0541   628
24.0641   617
24.0741   627
24.0841   646
24.0941   667
24.1041   614
24.1141   628
24.1241   623
24.1341   629
24.1441   652
24.1541   659
24.1641   624
24.1741   632
24.1841   663
24.1941   646
24.2041   627
24.2141   642
24.2241   686
24.2341   665
24.2441   683
24.2541   661
24.2641   635
24.2741   648
24.2841   650
24.2941   651
24.3041   633
24.3141   644
24.3241   608
24.3341   657
24.3441   644
24.3541   643
24.3641   629
24.3741   610
24.3841   663
24.3941   672
24.4041   597
24.4141   617
24.4241   659
24.4341   636
24.4441   646
24.4541   624
24.4641   577
24.4741   613
24.4841   616
24.4941   601
24.5041   626
24.5141   637
24.5241   610
24.5341   667
24.5441   593
24.5541   656
24.5641   622
24.5741   604
24.5841   592
24.5941   673
24.6041   623
24.6141   661
24.6241   605
24.6341   579
24.6441   644
24.6541   629
24.6641   645
24.6741   589
24.6841   594
24.6941   633
24.7041   616
24.7141   616
24.7241   619
24.7341   617
24.7441   679
24.7541   612
24.7641   626
24.7741   622
24.7841   591
24.7941   605
24.8041   625
24.8141   627
24.8241   633
24.8341   615
24.8441   613
24.8541   608
24.8641   655
24.8741   615
24.8841   625
24.8941   597
24.9041   620
24.9141   631
24.9241   642
24.9341   594
24.9441   590
24.9541   584
24.9641   608
24.9741   642
24.9841   645
24.9941   626
25.0041   634
25.0141   613
25.0241   567
25.0341   641
25.0441   656
25.0541   624
25.0641   581
25.0741   600
25.0841   619
25.0941   637
25.1041   617
25.1141   619
25.1241   608
25.1341   645
25.1441   634
25.1541   609
25.1641   605
25.1741   640
25.1841   657
25.1941   610
25.2041   618
25.2141   569
25.2241   626
25.2341   675
25.2441   645
25.2541   641
25.2641   627
25.2741   623
25.2841   645
25.2941   637
25.3041   596
25.3141   636
25.3241   628
25.3341   613
25.3441   614
25.3541   601
25.3641   617
25.3741   632
25.3841   606
25.3941   573
25.4041   630
25.4141   621
25.4241   628
25.4341   598
25.4441   593
25.4541   554
25.4641   606
25.4741   593
25.4841   577
25.4941   596
25.5041   635
25.5141   571
25.5241   640
25.5341   618
25.5441   575
25.5541   560
25.5641   611
25.5741   609
25.5841   615
25.5941   549
25.6041   567
25.6141   591
25.6241   581
25.6341   548
25.6441   577
25.6541   543
25.6641   597
25.6741   557
25.6841   547
25.6941   599
25.7041   551
25.7141   569
25.7241   595
25.7341   573
25.7441   552
25.7541   555
25.7641   566
25.7741   590
25.7841   589
25.7941   584
25.8041   562
25.8141   561
25.8241   546
25.8341   550
25.8441   576
25.8541   576
25.8641   583
25.8741   545
25.8841   581
25.8941   569
25.9041   620
25.9141   592
25.9241   578
25.9341   567
25.9441   589
25.9541   588
25.9641   566
25.9741   595
25.9841   554
25.9941   532
26.0041   516
26.0141   582
26.0241   579
26.0341   547
26.0441   596
26.0541   552
26.0641   573
26.0741   537
26.0841   565
26.0941   565
26.1041   598
26.1141   580
26.1241   572
26.1341   589
26.1441   591
26.1541   551
26.1641   582
26.1741   591
26.1841   543
26.1941   562
26.2041   561
26.2141   553
26.2241   530
26.2341   585
26.2441   550
26.2541   569
26.2641   565
26.2741   549
26.2841   557
26.2941   608
26.3041   558
26.3141   557
26.3241   533
26.3341   535
26.3441   575
26.3541   530
26.3641   560
26.3741   560
26.3841   556
26.3941   580
26.4041   550
26.4141   575
26.4241   551
26.4341   555
26.4441   535
26.4541   519
26.4641   564
26.4741   533
26.4841   582
26.4941   581
26.5041   521
26.5141   566
26.5241   541
26.5341   552
26.5441   557
26.5541   544
26.5641   559
26.5741   549
26.5841   555
26.5941   538
26.6041   556
26.6141   535
26.6241   519
26.6341   539
26.6441   572
26.6541   542
26.6641   528
26.6741   541
26.6841   549
26.6941   524
26.7041   533
26.7141   472
26.7241   549
26.7341   503
26.7441   572
26.7541   514
26.7641   540
26.7741   535
26.7841   510
26.7941   516
26.8041   515
26.8141   527
26.8241   545
26.8341   528
26.8441   503
26.8541   552
26.8641   535
26.8741   541
26.8841   516
26.8941   529
26.9041   547
26.9141   536
26.9241   488
26.9341   518
26.9441   516
26.9541   494
26.9641   508
26.9741   523
26.9841   546
26.9941   492
27.0041   486
27.0141   503
27.0241   500
27.0341   521
27.0441   509
27.0541   519
27.0641   496
27.0741   498
27.0841   530
27.0941   540
27.1041   503
27.1141   520
27.1241   492
27.1341   526
27.1441   517
27.1541   534
27.1641   502
27.1741   494
27.1841   503
27.1941   540
27.2041   535
27.2141   520
27.2241   507
27.2341   516
27.2441   558
27.2541   513
27.2641   548
27.2741   544
27.2841   498
27.2941   505
27.3041   522
27.3141   499
27.3241   480
27.3341   494
27.3441   476
27.3541   526
27.3641   482
27.3741   529
27.3841   512
27.3941   502
27.4041   493
27.4141   504
27.4241   503
27.4341   521
27.4441   488
27.4541   504
27.4641   557
27.4741   496
27.4841   491
27.4941   529
27.5041   482
27.5141   515
27.5241   483
27.5341   471
27.5441   511
27.5541   487
27.5641   487
27.5741   510
27.5841   518
27.5941   520
27.6041   512
27.6141   513
27.6241   454
27.6341   483
27.6441   485
27.6541   499
27.6641   479
27.6741   485
27.6841   508
27.6941   473
27.7041   487
27.7141   491
27.7241   495
27.7341   512
27.7441   501
27.7541   464
27.7641   473
27.7741   497
27.7841   493
27.7941   469
27.8041   454
27.8141   513
27.8241   493
27.8341   476
27.8441   470
27.8541   476
27.8641   470
27.8741   484
27.8841   477
27.8941   476
27.9041   467
27.9141   468
27.9241   493
27.9341   455
27.9441   456
27.9541   454
27.9641   459
27.9741   474
27.9841   501
27.9941   452
28.0041   468
28.0141   391
28.0241   505
28.0341   454
28.0441   476
28.0541   464
28.0641   449
28.0741   465
28.0841   475
28.0941   467
28.1041   441
28.1141   468
28.1241   470
28.1341   436
28.1441   465
28.1541   464
28.1641   481
28.1741   439
28.1841   469
28.1941   456
28.2041   434
28.2141   429
28.2241   413
28.2341   475
28.2441   455
28.2541   433
28.2641   433
28.2741   451
28.2841   465
28.2941   489
28.3041   469
28.3141   429
28.3241   469
28.3341   445
28.3441   455
28.3541   450
28.3641   476
28.3741   456
28.3841   477
28.3941   417
28.4041   454
28.4141   466
28.4241   449
28.4341   458
28.4441   455
28.4541   491
28.4641   453
28.4741   411
28.4841   473
28.4941   452
28.5041   448
28.5141   466
28.5241   475
28.5341   456
28.5441   430
28.5541   421
28.5641   440
28.5741   483
28.5841   460
28.5941   466
28.6041   428
28.6141   444
28.6241   432
28.6341   470
28.6441   463
28.6541   424
28.6641   448
28.6741   424
28.6841   435
28.6941   432
28.7041   429
28.7141   424
28.7241   420
28.7341   461
28.7441   438
28.7541   430
28.7641   466
28.7741   433
28.7841   426
28.7941   407
28.8041   436
28.8141   439
28.8241   436
28.8341   398
28.8441   455
28.8541   433
28.8641   424
28.8741   427
28.8841   411
28.8941   397
28.9041   433
28.9141   453
28.9241   448
28.9341   448
28.9441   413
28.9541   424
28.9641   394
28.9741   414
28.9841   444
28.9941   419
29.0041   416
29.0141   415
29.0241   438
29.0341   401
29.0441   411
29.0541   401
29.0641   398
29.0741   417
29.0841   410
29.0941   391
29.1041   401
29.1141   425
29.1241   384
29.1341   415
29.1441   419
29.1541   376
29.1641   397
29.1741   385
29.1841   406
29.1941   421
29.2041   382
29.2141   418
29.2241   404
29.2341   417
29.2441   445
29.2541   397
29.2641   402
29.2741   390
29.2841   394
29.2941   431
29.3041   421
29.3141   370
29.3241   414
29.3341   432
29.3441   431
29.3541   409
29.3641   433
29.3741   399
29.3841   393
29.3941   407
29.4041   384
29.4141   385
29.4241   406
29.4341   394
29.4441   407
29.4541   396
29.4641   385
29.4741   360
29.4841   335
29.4941   378
29.5041   393
29.5141   442
29.5241   421
29.5341   393
29.5441   417
29.5541   400
29.5641   396
29.5741   402
29.5841   395
29.5941   362
29.6041   396
29.6141   415
29.6241   390
29.6341   369
29.6441   378
29.6541   368
29.6641   375
29.6741   398
29.6841   359
29.6941   375
29.7041   384
29.7141   383
29.7241   420
29.7341   368
29.7441   378
29.7541   394
29.7641   376
29.7741   392
29.7841   367
29.7941   351
29.8041   410
29.8141   362
29.8241   384
29.8341   378
29.8441   420
29.8541   368
29.8641   362
29.8741   354
29.8841   358
29.8941   355
29.9041   372
29.9141   364
29.9241   411
29.9341   383
29.9441   364
29.9541   373
29.9641   327
29.9741   357
29.9841   345
29.9941   385
30.0041   359
30.0141   373
30.0241   372
30.0341   370
30.0441   370
30.0541   347
30.0641   393
30.0741   343
30.0841   361
30.0941   377
30.1041   332
30.1141   357
30.1241   365
30.1341   361
30.1441   340
30.1541   354
30.1641   388
30.1741   339
30.1841   320
30.1941   360
30.2041   368
30.2141   331
30.2241   358
30.2341   353
30.2441   354
30.2541   346
30.2641   329
30.2741   357
30.2841   357
30.2941   331
30.3041   371
30.3141   332
30.3241   351
30.3341   381
30.3441   339
30.3541   402
30.3641   344
30.3741   337
30.3841   338
30.3941   323
30.4041   347
30.4141   360
30.4241   339
30.4341   338
30.4441   319
30.4541   321
30.4641   329
30.4741   371
30.4841   368
30.4941   333
30.5041   371
30.5141   337
30.5241   328
30.5341   328
30.5441   349
30.5541   346
30.5641   375
30.5741   351
30.5841   346
30.5941   325
30.6041   334
30.6141   353
30.6241   333
30.6341   333
30.6441   342
30.6541   323
30.6641   327
30.6741   343
30.6841   343
30.6941   303
30.7041   349
30.7141   346
30.7241   324
30.7341   368
30.7441   336
30.7541   330
30.7641   289
30.7741   324
30.7841   313
30.7941   327
30.8041   343
30.8141   338
30.8241   308
30.8341   335
30.8441   340
30.8541   351
30.8641   327
30.8741   318
30.8841   316
30.8941   298
30.9041   305
30.9141   329
30.9241   338
30.9341   318
30.9441   335
30.9541   335
30.9641   302
30.9741   340
30.9841   353
30.9941   331
31.0041   319
31.0141   340
31.0241   328
31.0341   332
31.0441   306
31.0541   296
31.0641   330
31.0741   324
31.0841   318
31.0941   324
31.1041   322
31.1141   329
31.1241   309
31.1341   316
31.1441   341
31.1541   310
31.1641   307
31.1741   299
31.1841   310
31.1941   315
31.2041   314
31.2141   307
31.2241   313
31.2341   310
31.2441   323
31.2541   310
31.2641   312
31.2741   322
31.2841   267
31.2941   285
31.3041   295
31.3141   296
31.3241   329
31.3341   294
31.3441   306
31.3541   305
31.3641   302
31.3741   303
31.3841   303
31.3941   308
31.4041   312
31.4141   329
31.4241   283
31.4341   289
31.4441   315
31.4541   290
31.4641   300
31.4741   285
31.4841   310
31.4941   340
31.5041   294
31.5141   323
31.5241   299
31.5341   311
31.5441   295
31.5541   293
31.5641   301
31.5741   307
31.5841   319
31.5941   324
31.6041   291
31.6141   312
31.6241   327
31.6341   308
31.6441   284
31.6541   333
31.6641   313
31.6741   305
31.6841   337
31.6941   308
31.7041   312
31.7141   311
31.7241   316
31.7341   332
31.7441   324
31.7541   335
31.7641   310
31.7741   338
31.7841   324
31.7941   319
31.8041   323
31.8141   349
31.8241   319
31.8341   340
31.8441   315
31.8541   318
31.8641   349
31.8741   320
31.8841   319
31.8941   350
31.9041   299
31.9141   320
31.9241   329
31.9341   307
31.9441   314
31.9541   315
31.9641   333
31.9741   321
31.9841   313
31.9941   311
32.0041   330
32.0141   312
32.0241   320
32.0341   311
32.0441   312
32.0541   292
32.0641   318
32.0741   315
32.0841   336
32.0941   343
32.1041   339
32.1141   314
32.1241   343
32.1341   357
32.1441   351
32.1541   347
32.1641   320
32.1741   359
32.1841   319
32.1941   348
32.2041   333
32.2141   346
32.2241   350
32.2341   332
32.2441   360
32.2541   364
32.2641   322
32.2741   324
32.2841   303
32.2941   315
32.3041   342
32.3141   303
32.3241   306
32.3341   324
32.3441   276
32.3541   281
32.3641   327
32.3741   299
32.3841   295
32.3941   281
32.4041   259
32.4141   262
32.4241   257
32.4341   294
32.4441   286
32.4541   252
32.4641   242
32.4741   287
32.4841   262
32.4941   265
32.5041   284
32.5141   250
32.5241   252
32.5341   269
32.5441   238
32.5541   255
32.5641   239
32.5741   242
32.5841   240
32.5941   252
32.6041   242
32.6141   252
32.6241   259
32.6341   263
32.6441   235
32.6541   294
32.6641   255
32.6741   228
32.6841   240
32.6941   240
32.7041   234
32.7141   276
32.7241   231
32.7341   227
32.7441   246
32.7541   258
32.7641   247
32.7741   256
32.7841   217
32.7941   231
32.8041   242
32.8141   257
32.8241   249
32.8341   217
32.8441   237
32.8541   243
32.8641   253
32.8741   221
32.8841   229
32.8941   221
32.9041   240
32.9141   253
32.9241   260
32.9341   239
32.9441   241
32.9541   222
32.9641   230
32.9741   230
32.9841   236
32.9941   213
33.0041   224
33.0141   246
33.0241   222
33.0341   230
33.0441   252
33.0541   244
33.0641   219
33.0741   238
33.0841   259
33.0941   238
33.1041   242
33.1141   212
33.1241   230
33.1341   238
33.1441   209
33.1541   234
33.1641   209
33.1741   233
33.1841   224
33.1941   229
33.2041   226
33.2141   208
33.2241   222
33.2341   226
33.2441   210
33.2541   196
33.2641   225
33.2741   239
33.2841   228
33.2941   240
33.3041   229
33.3141   213
33.3241   203
33.3341   208
33.3441   202
33.3541   222
33.3641   213
33.3741   231
33.3841   236
33.3941   204
33.4041   206
33.4141   234
33.4241   213
33.4341   202
33.4441   188
33.4541   213
33.4641   195
33.4741   236
33.4841   235
33.4941   214
33.5041   221
33.5141   234
33.5241   196
33.5341   222
33.5441   192
33.5541   210
33.5641   240
33.5741   205
33.5841   182
33.5941   204
33.6041   213
33.6141   211
33.6241   222
33.6341   208
33.6441   212
33.6541   203
33.6641   214
33.6741   198
33.6841   192
33.6941   212
33.7041   216
33.7141   206
33.7241   224
33.7341   199
33.7441   202
33.7541   215
33.7641   203
33.7741   204
33.7841   222
33.7941   202
33.8041   223
33.8141   211
33.8241   213
33.8341   221
33.8441   219
33.8541   210
33.8641   196
33.8741   212
33.8841   189
33.8941   193
33.9041   197
33.9141   188
33.9241   224
33.9341   199
33.9441   204
33.9541   197
33.9641   198
33.9741   194
33.9841   178
33.9941   189
34.0041   168
34.0141   206
34.0241   190
34.0341   228
34.0441   214
34.0541   191
34.0641   180
34.0741   190
34.0841   184
34.0941   168
34.1041   165
34.1141   193
34.1241   206
34.1341   196
34.1441   164
34.1541   196
34.1641   207
34.1741   187
34.1841   181
34.1941   165
34.2041   200
34.2141   180
34.2241   191
34.2341   191
34.2441   187
34.2541   171
34.2641   185
34.2741   191
34.2841   186
34.2941   161
34.3041   193
34.3141   198
34.3241   194
34.3341   180
34.3441   179
34.3541   169
34.3641   191
34.3741   183
34.3841   197
34.3941   179
34.4041   182
34.4141   195
34.4241   176
34.4341   179
34.4441   190
34.4541   175
34.4641   171
34.4741   182
34.4841   182
34.4941   176
34.5041   158
34.5141   172
34.5241   179
34.5341   172
34.5441   170
34.5541   182
34.5641   184
34.5741   174
34.5841   171
34.5941   190
34.6041   180
34.6141   183
34.6241   169
34.6341   156
34.6441   155
34.6541   178
34.6641   156
34.6741   172
34.6841   148
34.6941   163
34.7041   177
34.7141   144
34.7241   146
34.7341   181
34.7441   176
34.7541   155
34.7641   150
34.7741   170
34.7841   165
34.7941   148
34.8041   165
34.8141   178
34.8241   170
34.8341   158
34.8441   184
34.8541   142
34.8641   158
34.8741   148
34.8841   191
34.8941   170
34.9041   154
34.9141   146
34.9241   169
34.9341   158
34.9441   151
34.9541   172
34.9641   179
34.9741   155
34.9841   168
34.9941   157
35.0041   157
35.0141   148
35.0241   157
35.0341   141
35.0441   165
35.0541   160
35.0641   169
35.0741   177
35.0841   170
35.0941   150
35.1041   145
35.1141   158
35.1241   170
35.1341   148
35.1441   154
35.1541   159
35.1641   136
35.1741   147
35.1841   180
35.1941   156
35.2041   149
35.2141   138
35.2241   148
35.2341   142
35.2441   142
35.2541   149
35.2641   149
35.2741   170
35.2841   150
35.2941   166
35.3041   158
35.3141   140
35.3241   152
35.3341   156
35.3441   148
35.3541   134
35.3641   131
35.3741   158
35.3841   154
35.3941   145
35.4041   135
35.4141   136
35.4241   158
35.4341   140
35.4441   140
35.4541   155
35.4641   137
35.4741   149
35.4841   153
35.4941   137
35.5041   130
35.5141   156
35.5241   147
35.5341   169
35.5441   130
35.5541   129
35.5641   137
35.5741   149
35.5841   160
35.5941   151
35.6041   152
35.6141   148
35.6241   118
35.6341   138
35.6441   156
35.6541   139
35.6641   130
35.6741   148
35.6841   119
35.6941   144
35.7041   129
35.7141   133
35.7241   160
35.7341   138
35.7441   131
35.7541   132
35.7641   143
35.7741   137
35.7841   161
35.7941   123
35.8041   143
35.8141   139
35.8241   144
35.8341   138
35.8441   142
35.8541   122
35.8641   134
35.8741   126
35.8841   134
35.8941   134
35.9041   151
35.9141   148
35.9241   142
35.9341   120
35.9441   139
35.9541   121
35.9641   128
35.9741   125
35.9841   137
35.9941   116
36.0041   129
36.0141   147
36.0241   131
36.0341   115
36.0441   110
36.0541   110
36.0641   107
36.0741   147
36.0841   111
36.0941   140
36.1041   155
36.1141   116
36.1241   138
36.1341   112
36.1441   117
36.1541   148
36.1641   131
36.1741   132
36.1841   141
36.1941   137
36.2041   111
36.2141   110
36.2241   139
36.2341   135
36.2441   140
36.2541   129
36.2641   131
36.2741   130
36.2841   141
36.2941   132
36.3041   127
36.3141   122
36.3241   124
36.3341   102
36.3441   152
36.3541   122
36.3641   137
36.3741   139
36.3841   144
36.3941   135
36.4041   160
36.4141   137
36.4241   130
36.4341   128
36.4441   114
36.4541   118
36.4641   114
36.4741   130
36.4841   123
36.4941   118
36.5041   120
36.5141   132
36.5241   128
36.5341   110
36.5441   101
36.5541   110
36.5641   119
36.5741   121
36.5841   129
36.5941   120
36.6041   105
36.6141    96
36.6241   107
36.6341   124
36.6441   125
36.6541   119
36.6641   128
36.6741   113
36.6841   112
36.6941   127
36.7041   142
36.7141   121
36.7241   119
36.7341   125
36.7441   116
36.7541   104
36.7641    99
36.7741   111
36.7841   125
36.7941   104
36.8041   109
36.8141   123
36.8241   109
36.8341   123
36.8441    92
36.8541   105
36.8641   118
36.8741    98
36.8841   119
36.8941    95
36.9041    88
36.9141   111
36.9241   117
36.9341    94
36.9441   115
36.9541   107
36.9641   105
36.9741    98
36.9841   122
36.9941    98
37.0041   111
37.0141   109
37.0241   105
37.0341   112
37.0441   100
37.0541   113
37.0641    87
37.0741   110
37.0841    77
37.0941    99
37.1041   101
37.1141   106
37.1241   102
37.1341    91
37.1441   110
37.1541   110
37.1641   113
37.1741    89
37.1841   108
37.1941    95
37.2041   113
37.2141    92
37.2241   110
37.2341    87
37.2441    90
37.2541   114
37.2641    77
37.2741    91
37.2841    98
37.2941   109
37.3041   106
37.3141   107
37.3241   102
37.3341   127
37.3441    98
37.3541    88
37.3641    84
37.3741   101
37.3841    90
37.3941   123
37.4041   101
37.4141    99
37.4241    86
37.4341   100
37.4441    97
37.4541   103
37.4641    80
37.4741    93
37.4841    92
37.4941    92
37.5041    77
37.5141    89
37.5241    84
37.5341   107
37.5441    74
37.5541    99
37.5641    93
37.5741    90
37.5841   100
37.5941    92
37.6041    94
37.6141    98
37.6241    78
37.6341    93
37.6441    74
37.6541    73
37.6641    74
37.6741    90
37.6841    99
37.6941    89
37.7041    85
37.7141   100
37.7241   104
37.7341    82
37.7441    96
37.7541   103
37.7641    90
37.7741    84
37.7841    89
37.7941    92
37.8041    89
37.8141    91
37.8241    79
37.8341    81
37.8441    83
37.8541    80
37.8641    85
37.8741    86
37.8841    99
37.8941    86
37.9041    89
37.9141    87
37.9241    85
37.9341    73
37.9441    78
37.9541    76
37.9641    73
37.9741    72
37.9841    64
37.9941    89
38.0041    72
38.0141    95
38.0241    95
38.0341    68
38.0441    87
38.0541    79
38.0641    75
38.0741    82
38.0841    77
38.0941    92
38.1041    75
38.1141    86
38.1241    81
38.1341    77
38.1441    71
38.1541    70
38.1641    71
38.1741    79
38.1841    80
38.1941    76
38.2041    67
38.2141    63
38.2241    66
38.2341    70
38.2441    77
38.2541    59
38.2641    77
38.2741    81
38.2841    83
38.2941    81
38.3041    75
38.3141    83
38.3241    72
38.3341    71
38.3441    81
38.3541    89
38.3641    73
38.3741    70
38.3841    78
38.3941    69
38.4041    80
38.4141    53
38.4241    74
38.4341    55
38.4441    65
38.4541    58
38.4641    73
38.4741    66
38.4841    58
38.4941    70
38.5041    83
38.5141    59
38.5241    66
38.5341    61
38.5441    63
38.5541    60
38.5641    69
38.5741    80
38.5841    76
38.5941    67
38.6041    49
38.6141    57
38.6241    76
38.6341    67
38.6441    70
38.6541    63
38.6641    68
38.6741    66
38.6841    79
38.6941    72
38.7041    73
38.7141    72
38.7241    82
38.7341    57
38.7441    60
38.7541    71
38.7641    57
38.7741    53
38.7841    61
38.7941    77
38.8041    68
38.8141    53
38.8241    82
38.8341    73
38.8441    55
38.8541    63
38.8641    66
38.8741    62
38.8841    51
38.8941    71
38.9041    53
38.9141    59
38.9241    50
38.9341    48
38.9441    58
38.9541    56
38.9641    56
38.9741    56
38.9841    53
38.9941    57
39.0041    62
39.0141    53
39.0241    51
39.0341    61
39.0441    65
39.0541    58
39.0641    40
39.0741    60
39.0841    54
39.0941    60
39.1041    55
39.1141    57
39.1241    74
39.1341    60
39.1441    51
39.1541    44
39.1641    50
39.1741    59
39.1841    43
39.1941    41
39.2041    57
39.2141    40
39.2241    51
39.2341    61
39.2441    61
39.2541    43
39.2641    59
39.2741    60
39.2841    53
39.2941    56
39.3041    56
39.3141    55
39.3241    55
39.3341    55
39.3441    62
39.3541    51
39.3641    48
39.3741    46
39.3841    48
39.3941    60
39.4041    45
39.4141    44
39.4241    54
39.4341    44
39.4441    44
39.4541    52
39.4641    53
39.4741    54
39.4841    47
39.4941    52
39.5041    43
39.5141    49
39.5241    43
39.5341    50
39.5441    55
39.5541    50
39.5641    54
39.5741    63
39.5841    55
39.5941    54
39.6041    55
39.6141    38
39.6241    48
39.6341    63
39.6441    57
39.6541    36
39.6641    50
39.6741    43
39.6841    46
39.6941    50
39.7041    41
39.7141    44
39.7241    51
39.7341    47
39.7441    44
39.7541    62
39.7641    42
39.7741    57
39.7841    54
39.7941    49
39.8041    40
39.8141    48
39.8241    50
39.8341    57
39.8441    53
39.8541    47
39.8641    38
39.8741    51
39.8841    45
39.8941    48
39.9041    38
39.9141    30
39.9241    41
39.9341    40
39.9441    40
39.9541    50
39.9641    53
39.9741    40
39.9841    35
