Bruker Nano GmbH Berlin, Germany
Esprit 1.9

Date: 4/1/2021 4:54:56 PM
Real time: 35576
Life time: 33504
Pulse density: 81744


Detector type: XFlash 430
Window type: Custom type
Detector thickness: 0.45
Si dead layer:0.029

Calibration, lin.: 10
Calibration, abs.: -955.9
Mn FWHM: 137.05
Fano factor: 0.121
Channels: 4096

Energy Counts
-0.9559      0
-0.9459      0
-0.9359      0
-0.9259      0
-0.9159      0
-0.9059      0
-0.8959      0
-0.8859      0
-0.8759      0
-0.8659      0
-0.8559      0
-0.8459      0
-0.8359      0
-0.8259      0
-0.8159      0
-0.8059      0
-0.7959      0
-0.7859      0
-0.7759      0
-0.7659      0
-0.7559      0
-0.7459      0
-0.7359      0
-0.7259      0
-0.7159      0
-0.7059      0
-0.6959      0
-0.6859      0
-0.6759      0
-0.6659      0
-0.6559      0
-0.6459      0
-0.6359      0
-0.6259      0
-0.6159      0
-0.6059      0
-0.5959      0
-0.5859      0
-0.5759      0
-0.5659      0
-0.5559      0
-0.5459      0
-0.5359      0
-0.5259      0
-0.5159      0
-0.5059      0
-0.4959      0
-0.4859      0
-0.4759      0
-0.4659      0
-0.4559      0
-0.4459      0
-0.4359      0
-0.4259      0
-0.4159      0
-0.4059      0
-0.3959      0
-0.3859      0
-0.3759      0
-0.3659      0
-0.3559      0
-0.3459      0
-0.3359      0
-0.3259      0
-0.3159      0
-0.3059      0
-0.2959      0
-0.2859      0
-0.2759      0
-0.2659      0
-0.2559      0
-0.2459      0
-0.2359      0
-0.2259      0
-0.2159      0
-0.2059      0
-0.1959      0
-0.1859      0
-0.1759      0
-0.1659      0
-0.1559      0
-0.1459      0
-0.1359      0
-0.1259      1
-0.1159      8
-0.1059     25
-0.0959     92
-0.0859    387
-0.0759   1309
-0.0659   3847
-0.0559   9717
-0.0459  21359
-0.0359  39908
-0.0259  63925
-0.0159  87479
-0.0059 102560
 0.0041 102740
 0.0141  88848
 0.0241  65740
 0.0341  41567
 0.0441  22765
 0.0541  10584
 0.0641   4162
 0.0741   1453
 0.0841    476
 0.0941    143
 0.1041     33
 0.1141     19
 0.1241     12
 0.1341     17
 0.1441     12
 0.1541      4
 0.1641      4
 0.1741     47
 0.1841    349
 0.1941    620
 0.2041    610
 0.2141    564
 0.2241    593
 0.2341    567
 0.2441    592
 0.2541    605
 0.2641    616
 0.2741    624
 0.2841    578
 0.2941    578
 0.3041    566
 0.3141    561
 0.3241    587
 0.3341    592
 0.3441    555
 0.3541    569
 0.3641    600
 0.3741    597
 0.3841    569
 0.3941    534
 0.4041    534
 0.4141    524
 0.4241    557
 0.4341    562
 0.4441    557
 0.4541    554
 0.4641    499
 0.4741    491
 0.4841    515
 0.4941    552
 0.5041    560
 0.5141    536
 0.5241    512
 0.5341    503
 0.5441    510
 0.5541    519
 0.5641    510
 0.5741    479
 0.5841    473
 0.5941    454
 0.6041    471
 0.6141    490
 0.6241    464
 0.6341    474
 0.6441    493
 0.6541    467
 0.6641    481
 0.6741    489
 0.6841    478
 0.6941    481
 0.7041    468
 0.7141    455
 0.7241    449
 0.7341    448
 0.7441    443
 0.7541    467
 0.7641    473
 0.7741    447
 0.7841    441
 0.7941    441
 0.8041    435
 0.8141    448
 0.8241    428
 0.8341    420
 0.8441    428
 0.8541    423
 0.8641    429
 0.8741    447
 0.8841    420
 0.8941    417
 0.9041    443
 0.9141    449
 0.9241    431
 0.9341    416
 0.9441    436
 0.9541    431
 0.9641    396
 0.9741    400
 0.9841    408
 0.9941    392
 1.0041    417
 1.0141    391
 1.0241    398
 1.0341    372
 1.0441    423
 1.0541    386
 1.0641    386
 1.0741    397
 1.0841    380
 1.0941    397
 1.1041    401
 1.1141    403
 1.1241    371
 1.1341    410
 1.1441    377
 1.1541    405
 1.1641    403
 1.1741    376
 1.1841    393
 1.1941    386
 1.2041    388
 1.2141    366
 1.2241    398
 1.2341    361
 1.2441    402
 1.2541    367
 1.2641    369
 1.2741    384
 1.2841    369
 1.2941    377
 1.3041    362
 1.3141    353
 1.3241    353
 1.3341    354
 1.3441    346
 1.3541    333
 1.3641    322
 1.3741    358
 1.3841    357
 1.3941    365
 1.4041    346
 1.4141    360
 1.4241    357
 1.4341    315
 1.4441    316
 1.4541    364
 1.4641    375
 1.4741    354
 1.4841    369
 1.4941    388
 1.5041    349
 1.5141    326
 1.5241    358
 1.5341    341
 1.5441    353
 1.5541    348
 1.5641    324
 1.5741    336
 1.5841    347
 1.5941    315
 1.6041    356
 1.6141    337
 1.6241    353
 1.6341    360
 1.6441    386
 1.6541    419
 1.6641    479
 1.6741    551
 1.6841    696
 1.6941    882
 1.7041   1022
 1.7141   1122
 1.7241   1282
 1.7341   1390
 1.7441   1352
 1.7541   1288
 1.7641   1186
 1.7741   1078
 1.7841    842
 1.7941    703
 1.8041    605
 1.8141    527
 1.8241    474
 1.8341    449
 1.8441    423
 1.8541    400
 1.8641    382
 1.8741    401
 1.8841    389
 1.8941    375
 1.9041    340
 1.9141    345
 1.9241    348
 1.9341    368
 1.9441    380
 1.9541    363
 1.9641    362
 1.9741    360
 1.9841    406
 1.9941    422
 2.0041    402
 2.0141    415
 2.0241    406
 2.0341    402
 2.0441    408
 2.0541    401
 2.0641    343
 2.0741    362
 2.0841    363
 2.0941    345
 2.1041    312
 2.1141    331
 2.1241    360
 2.1341    353
 2.1441    324
 2.1541    304
 2.1641    295
 2.1741    318
 2.1841    303
 2.1941    299
 2.2041    306
 2.2141    325
 2.2241    313
 2.2341    283
 2.2441    297
 2.2541    304
 2.2641    295
 2.2741    341
 2.2841    298
 2.2941    290
 2.3041    290
 2.3141    290
 2.3241    280
 2.3341    312
 2.3441    288
 2.3541    280
 2.3641    286
 2.3741    279
 2.3841    288
 2.3941    257
 2.4041    289
 2.4141    287
 2.4241    276
 2.4341    302
 2.4441    301
 2.4541    269
 2.4641    274
 2.4741    265
 2.4841    291
 2.4941    317
 2.5041    283
 2.5141    275
 2.5241    279
 2.5341    242
 2.5441    278
 2.5541    281
 2.5641    263
 2.5741    280
 2.5841    278
 2.5941    272
 2.6041    282
 2.6141    265
 2.6241    245
 2.6341    252
 2.6441    257
 2.6541    269
 2.6641    245
 2.6741    232
 2.6841    247
 2.6941    287
 2.7041    247
 2.7141    239
 2.7241    253
 2.7341    252
 2.7441    227
 2.7541    281
 2.7641    248
 2.7741    248
 2.7841    275
 2.7941    281
 2.8041    259
 2.8141    262
 2.8241    257
 2.8341    283
 2.8441    251
 2.8541    269
 2.8641    278
 2.8741    247
 2.8841    241
 2.8941    269
 2.9041    276
 2.9141    231
 2.9241    249
 2.9341    246
 2.9441    244
 2.9541    241
 2.9641    253
 2.9741    200
 2.9841    246
 2.9941    238
 3.0041    213
 3.0141    235
 3.0241    220
 3.0341    239
 3.0441    202
 3.0541    231
 3.0641    224
 3.0741    227
 3.0841    226
 3.0941    204
 3.1041    228
 3.1141    222
 3.1241    209
 3.1341    189
 3.1441    209
 3.1541    213
 3.1641    200
 3.1741    219
 3.1841    217
 3.1941    190
 3.2041    208
 3.2141    184
 3.2241    224
 3.2341    209
 3.2441    201
 3.2541    231
 3.2641    227
 3.2741    232
 3.2841    230
 3.2941    233
 3.3041    232
 3.3141    245
 3.3241    219
 3.3341    233
 3.3441    230
 3.3541    217
 3.3641    216
 3.3741    200
 3.3841    206
 3.3941    207
 3.4041    201
 3.4141    188
 3.4241    183
 3.4341    172
 3.4441    190
 3.4541    191
 3.4641    186
 3.4741    212
 3.4841    183
 3.4941    218
 3.5041    206
 3.5141    194
 3.5241    221
 3.5341    188
 3.5441    205
 3.5541    226
 3.5641    273
 3.5741    302
 3.5841    358
 3.5941    421
 3.6041    528
 3.6141    689
 3.6241    906
 3.6341   1038
 3.6441   1305
 3.6541   1500
 3.6641   1654
 3.6741   1820
 3.6841   1936
 3.6941   1906
 3.7041   1889
 3.7141   1769
 3.7241   1492
 3.7341   1383
 3.7441   1110
 3.7541    924
 3.7641    665
 3.7741    546
 3.7841    441
 3.7941    371
 3.8041    283
 3.8141    248
 3.8241    194
 3.8341    189
 3.8441    158
 3.8541    173
 3.8641    169
 3.8741    181
 3.8841    207
 3.8941    165
 3.9041    193
 3.9141    220
 3.9241    219
 3.9341    262
 3.9441    234
 3.9541    256
 3.9641    324
 3.9741    360
 3.9841    365
 3.9941    385
 4.0041    402
 4.0141    338
 4.0241    391
 4.0341    370
 4.0441    355
 4.0541    336
 4.0641    269
 4.0741    236
 4.0841    265
 4.0941    233
 4.1041    177
 4.1141    202
 4.1241    156
 4.1341    182
 4.1441    148
 4.1541    133
 4.1641    136
 4.1741    141
 4.1841    134
 4.1941    149
 4.2041    138
 4.2141    149
 4.2241    149
 4.2341    146
 4.2441    139
 4.2541    132
 4.2641    146
 4.2741    148
 4.2841    147
 4.2941    143
 4.3041    127
 4.3141    149
 4.3241    149
 4.3341    132
 4.3441    161
 4.3541    150
 4.3641    130
 4.3741    139
 4.3841    142
 4.3941    156
 4.4041    167
 4.4141    150
 4.4241    164
 4.4341    196
 4.4441    171
 4.4541    199
 4.4641    192
 4.4741    228
 4.4841    209
 4.4941    218
 4.5041    200
 4.5141    215
 4.5241    223
 4.5341    215
 4.5441    202
 4.5541    211
 4.5641    192
 4.5741    188
 4.5841    158
 4.5941    190
 4.6041    148
 4.6141    169
 4.6241    167
 4.6341    152
 4.6441    160
 4.6541    151
 4.6641    166
 4.6741    139
 4.6841    130
 4.6941    156
 4.7041    150
 4.7141    143
 4.7241    144
 4.7341    145
 4.7441    148
 4.7541    131
 4.7641    117
 4.7741    127
 4.7841    129
 4.7941    141
 4.8041    152
 4.8141    160
 4.8241    142
 4.8341    112
 4.8441    133
 4.8541    142
 4.8641    153
 4.8741    153
 4.8841    158
 4.8941    156
 4.9041    154
 4.9141    151
 4.9241    135
 4.9341    169
 4.9441    166
 4.9541    159
 4.9641    161
 4.9741    151
 4.9841    138
 4.9941    146
 5.0041    149
 5.0141    143
 5.0241    170
 5.0341    162
 5.0441    169
 5.0541    151
 5.0641    142
 5.0741    145
 5.0841    161
 5.0941    178
 5.1041    155
 5.1141    143
 5.1241    170
 5.1341    172
 5.1441    155
 5.1541    167
 5.1641    148
 5.1741    144
 5.1841    155
 5.1941    151
 5.2041    154
 5.2141    144
 5.2241    152
 5.2341    145
 5.2441    174
 5.2541    147
 5.2641    177
 5.2741    159
 5.2841    165
 5.2941    155
 5.3041    164
 5.3141    152
 5.3241    186
 5.3341    158
 5.3441    142
 5.3541    156
 5.3641    155
 5.3741    182
 5.3841    160
 5.3941    159
 5.4041    154
 5.4141    158
 5.4241    176
 5.4341    177
 5.4441    156
 5.4541    159
 5.4641    140
 5.4741    145
 5.4841    162
 5.4941    141
 5.5041    154
 5.5141    139
 5.5241    154
 5.5341    161
 5.5441    144
 5.5541    159
 5.5641    152
 5.5741    144
 5.5841    168
 5.5941    127
 5.6041    141
 5.6141    153
 5.6241    155
 5.6341    155
 5.6441    182
 5.6541    155
 5.6641    153
 5.6741    187
 5.6841    159
 5.6941    146
 5.7041    175
 5.7141    159
 5.7241    185
 5.7341    209
 5.7441    179
 5.7541    179
 5.7641    192
 5.7741    196
 5.7841    199
 5.7941    196
 5.8041    238
 5.8141    225
 5.8241    239
 5.8341    243
 5.8441    245
 5.8541    251
 5.8641    258
 5.8741    292
 5.8841    268
 5.8941    257
 5.9041    279
 5.9141    276
 5.9241    289
 5.9341    276
 5.9441    268
 5.9541    272
 5.9641    239
 5.9741    235
 5.9841    202
 5.9941    204
 6.0041    209
 6.0141    190
 6.0241    176
 6.0341    195
 6.0441    201
 6.0541    197
 6.0641    214
 6.0741    183
 6.0841    189
 6.0941    181
 6.1041    161
 6.1141    185
 6.1241    164
 6.1341    180
 6.1441    189
 6.1541    180
 6.1641    177
 6.1741    185
 6.1841    191
 6.1941    196
 6.2041    186
 6.2141    197
 6.2241    226
 6.2341    253
 6.2441    317
 6.2541    390
 6.2641    430
 6.2741    560
 6.2841    743
 6.2941    923
 6.3041   1098
 6.3141   1335
 6.3241   1623
 6.3341   1893
 6.3441   2228
 6.3541   2541
 6.3641   2797
 6.3741   3111
 6.3841   3144
 6.3941   3247
 6.4041   3329
 6.4141   3242
 6.4241   2902
 6.4341   2771
 6.4441   2481
 6.4541   2122
 6.4641   1815
 6.4741   1484
 6.4841   1286
 6.4941   1017
 6.5041    795
 6.5141    668
 6.5241    523
 6.5341    426
 6.5441    381
 6.5541    337
 6.5641    282
 6.5741    233
 6.5841    227
 6.5941    218
 6.6041    213
 6.6141    230
 6.6241    206
 6.6341    212
 6.6441    187
 6.6541    195
 6.6641    205
 6.6741    224
 6.6841    201
 6.6941    210
 6.7041    204
 6.7141    198
 6.7241    230
 6.7341    218
 6.7441    210
 6.7541    200
 6.7641    233
 6.7741    207
 6.7841    227
 6.7941    220
 6.8041    226
 6.8141    222
 6.8241    248
 6.8341    237
 6.8441    228
 6.8541    232
 6.8641    255
 6.8741    263
 6.8841    238
 6.8941    299
 6.9041    298
 6.9141    283
 6.9241    305
 6.9341    317
 6.9441    363
 6.9541    428
 6.9641    453
 6.9741    526
 6.9841    545
 6.9941    558
 7.0041    600
 7.0141    674
 7.0241    730
 7.0341    722
 7.0441    707
 7.0541    764
 7.0641    708
 7.0741    723
 7.0841    696
 7.0941    702
 7.1041    621
 7.1141    591
 7.1241    551
 7.1341    514
 7.1441    455
 7.1541    433
 7.1641    410
 7.1741    407
 7.1841    347
 7.1941    331
 7.2041    367
 7.2141    302
 7.2241    353
 7.2341    362
 7.2441    324
 7.2541    340
 7.2641    350
 7.2741    350
 7.2841    367
 7.2941    368
 7.3041    417
 7.3141    385
 7.3241    446
 7.3341    404
 7.3441    431
 7.3541    472
 7.3641    474
 7.3741    445
 7.3841    480
 7.3941    499
 7.4041    488
 7.4141    484
 7.4241    460
 7.4341    459
 7.4441    423
 7.4541    432
 7.4641    391
 7.4741    418
 7.4841    375
 7.4941    388
 7.5041    363
 7.5141    357
 7.5241    355
 7.5341    342
 7.5441    348
 7.5541    330
 7.5641    352
 7.5741    346
 7.5841    355
 7.5941    332
 7.6041    357
 7.6141    322
 7.6241    355
 7.6341    351
 7.6441    377
 7.6541    345
 7.6641    351
 7.6741    377
 7.6841    382
 7.6941    389
 7.7041    407
 7.7141    439
 7.7241    423
 7.7341    423
 7.7441    454
 7.7541    459
 7.7641    427
 7.7741    436
 7.7841    452
 7.7941    466
 7.8041    512
 7.8141    496
 7.8241    471
 7.8341    494
 7.8441    541
 7.8541    511
 7.8641    549
 7.8741    593
 7.8841    611
 7.8941    614
 7.9041    595
 7.9141    641
 7.9241    634
 7.9341    674
 7.9441    715
 7.9541    793
 7.9641    845
 7.9741    882
 7.9841    952
 7.9941   1044
 8.0041   1091
 8.0141   1173
 8.0241   1253
 8.0341   1351
 8.0441   1470
 8.0541   1519
 8.0641   1633
 8.0741   1698
 8.0841   1885
 8.0941   1958
 8.1041   2017
 8.1141   2118
 8.1241   2216
 8.1341   2319
 8.1441   2390
 8.1541   2428
 8.1641   2468
 8.1741   2500
 8.1841   2608
 8.1941   2572
 8.2041   2593
 8.2141   2489
 8.2241   2634
 8.2341   2667
 8.2441   2759
 8.2541   2772
 8.2641   2844
 8.2741   3022
 8.2841   3277
 8.2941   3385
 8.3041   3671
 8.3141   4010
 8.3241   4190
 8.3341   4361
 8.3441   4811
 8.3541   4940
 8.3641   5293
 8.3741   5384
 8.3841   5477
 8.3941   5514
 8.4041   5341
 8.4141   5233
 8.4241   4919
 8.4341   4593
 8.4441   4300
 8.4541   3774
 8.4641   3332
 8.4741   2956
 8.4841   2541
 8.4941   2116
 8.5041   1831
 8.5141   1596
 8.5241   1362
 8.5341   1136
 8.5441    949
 8.5541    871
 8.5641    707
 8.5741    658
 8.5841    645
 8.5941    652
 8.6041    629
 8.6141    669
 8.6241    619
 8.6341    634
 8.6441    641
 8.6541    611
 8.6641    623
 8.6741    601
 8.6841    630
 8.6941    678
 8.7041    634
 8.7141    567
 8.7241    560
 8.7341    562
 8.7441    587
 8.7541    582
 8.7641    604
 8.7741    605
 8.7841    590
 8.7941    547
 8.8041    598
 8.8141    611
 8.8241    583
 8.8341    611
 8.8441    651
 8.8541    641
 8.8641    661
 8.8741    641
 8.8841    659
 8.8941    646
 8.9041    656
 8.9141    675
 8.9241    717
 8.9341    754
 8.9441    696
 8.9541    722
 8.9641    735
 8.9741    730
 8.9841    774
 8.9941    756
 9.0041    818
 9.0141    797
 9.0241    813
 9.0341    848
 9.0441    851
 9.0541    831
 9.0641    912
 9.0741    929
 9.0841    911
 9.0941    912
 9.1041    956
 9.1141   1006
 9.1241   1038
 9.1341   1071
 9.1441   1079
 9.1541   1159
 9.1641   1169
 9.1741   1220
 9.1841   1252
 9.1941   1314
 9.2041   1387
 9.2141   1410
 9.2241   1522
 9.2341   1563
 9.2441   1655
 9.2541   1736
 9.2641   1813
 9.2741   1892
 9.2841   1960
 9.2941   2018
 9.3041   2136
 9.3141   2216
 9.3241   2298
 9.3341   2375
 9.3441   2390
 9.3541   2502
 9.3641   2513
 9.3741   2551
 9.3841   2633
 9.3941   2650
 9.4041   2631
 9.4141   2717
 9.4241   2671
 9.4341   2742
 9.4441   2731
 9.4541   2791
 9.4641   2868
 9.4741   2859
 9.4841   2847
 9.4941   2906
 9.5041   2932
 9.5141   2936
 9.5241   3020
 9.5341   3120
 9.5441   3160
 9.5541   3368
 9.5641   3644
 9.5741   3737
 9.5841   3962
 9.5941   4106
 9.6041   4410
 9.6141   4587
 9.6241   4819
 9.6341   5034
 9.6441   5256
 9.6541   5260
 9.6641   5337
 9.6741   5324
 9.6841   5278
 9.6941   5138
 9.7041   4991
 9.7141   4697
 9.7241   4469
 9.7341   4161
 9.7441   3857
 9.7541   3744
 9.7641   3505
 9.7741   3223
 9.7841   3072
 9.7941   2931
 9.8041   2808
 9.8141   2678
 9.8241   2618
 9.8341   2537
 9.8441   2426
 9.8541   2427
 9.8641   2461
 9.8741   2451
 9.8841   2499
 9.8941   2560
 9.9041   2553
 9.9141   2567
 9.9241   2674
 9.9341   2651
 9.9441   2615
 9.9541   2663
 9.9641   2637
 9.9741   2402
 9.9841   2283
 9.9941   2279
10.0041   2192
10.0141   1944
10.0241   1817
10.0341   1658
10.0441   1499
10.0541   1394
10.0641   1205
10.0741   1074
10.0841    986
10.0941    878
10.1041    813
10.1141    694
10.1241    669
10.1341    612
10.1441    582
10.1541    568
10.1641    564
10.1741    492
10.1841    505
10.1941    486
10.2041    437
10.2141    449
10.2241    441
10.2341    415
10.2441    416
10.2541    429
10.2641    358
10.2741    348
10.2841    363
10.2941    351
10.3041    344
10.3141    342
10.3241    361
10.3341    340
10.3441    307
10.3541    326
10.3641    316
10.3741    310
10.3841    318
10.3941    322
10.4041    339
10.4141    360
10.4241    331
10.4341    353
10.4441    346
10.4541    354
10.4641    335
10.4741    348
10.4841    365
10.4941    387
10.5041    357
10.5141    347
10.5241    386
10.5341    391
10.5441    393
10.5541    363
10.5641    392
10.5741    389
10.5841    418
10.5941    403
10.6041    395
10.6141    413
10.6241    402
10.6341    395
10.6441    426
10.6541    420
10.6641    462
10.6741    476
10.6841    450
10.6941    428
10.7041    445
10.7141    486
10.7241    489
10.7341    514
10.7441    491
10.7541    524
10.7641    546
10.7741    543
10.7841    536
10.7941    578
10.8041    635
10.8141    608
10.8241    590
10.8341    605
10.8441    620
10.8541    619
10.8641    602
10.8741    614
10.8841    680
10.8941    640
10.9041    630
10.9141    656
10.9241    647
10.9341    636
10.9441    630
10.9541    637
10.9641    612
10.9741    605
10.9841    623
10.9941    625
11.0041    583
11.0141    562
11.0241    571
11.0341    588
11.0441    544
11.0541    518
11.0641    548
11.0741    547
11.0841    570
11.0941    562
11.1041    562
11.1141    533
11.1241    537
11.1341    541
11.1441    563
11.1541    585
11.1641    586
11.1741    656
11.1841    645
11.1941    636
11.2041    686
11.2141    740
11.2241    707
11.2341    742
11.2441    801
11.2541    795
11.2641    807
11.2741    822
11.2841    796
11.2941    804
11.3041    817
11.3141    791
11.3241    761
11.3341    731
11.3441    710
11.3541    688
11.3641    633
11.3741    596
11.3841    600
11.3941    551
11.4041    513
11.4141    488
11.4241    463
11.4341    466
11.4441    462
11.4541    463
11.4641    455
11.4741    419
11.4841    422
11.4941    438
11.5041    405
11.5141    445
11.5241    443
11.5341    436
11.5441    429
11.5541    418
11.5641    410
11.5741    424
11.5841    433
11.5941    444
11.6041    455
11.6141    472
11.6241    475
11.6341    452
11.6441    456
11.6541    454
11.6641    445
11.6741    430
11.6841    457
11.6941    418
11.7041    424
11.7141    426
11.7241    378
11.7341    363
11.7441    395
11.7541    410
11.7641    378
11.7741    335
11.7841    317
11.7941    309
11.8041    302
11.8141    305
11.8241    314
11.8341    318
11.8441    308
11.8541    316
11.8641    307
11.8741    292
11.8841    315
11.8941    298
11.9041    291
11.9141    321
11.9241    329
11.9341    325
11.9441    334
11.9541    326
11.9641    312
11.9741    326
11.9841    332
11.9941    336
12.0041    341
12.0141    312
12.0241    308
12.0341    325
12.0441    327
12.0541    332
12.0641    332
12.0741    335
12.0841    306
12.0941    324
12.1041    350
12.1141    314
12.1241    305
12.1341    309
12.1441    312
12.1541    312
12.1641    304
12.1741    300
12.1841    320
12.1941    311
12.2041    299
12.2141    301
12.2241    306
12.2341    302
12.2441    300
12.2541    300
12.2641    310
12.2741    317
12.2841    316
12.2941    298
12.3041    313
12.3141    330
12.3241    336
12.3341    340
12.3441    316
12.3541    310
12.3641    330
12.3741    324
12.3841    313
12.3941    324
12.4041    335
12.4141    324
12.4241    326
12.4341    304
12.4441    291
12.4541    305
12.4641    315
12.4741    314
12.4841    304
12.4941    353
12.5041    365
12.5141    341
12.5241    316
12.5341    337
12.5441    349
12.5541    325
12.5641    336
12.5741    331
12.5841    338
12.5941    358
12.6041    368
12.6141    349
12.6241    327
12.6341    341
12.6441    353
12.6541    350
12.6641    342
12.6741    352
12.6841    351
12.6941    355
12.7041    364
12.7141    358
12.7241    357
12.7341    365
12.7441    352
12.7541    351
12.7641    354
12.7741    361
12.7841    371
12.7941    389
12.8041    380
12.8141    355
12.8241    357
12.8341    371
12.8441    374
12.8541    370
12.8641    369
12.8741    378
12.8841    377
12.8941    399
12.9041    394
12.9141    377
12.9241    389
12.9341    402
12.9441    397
12.9541    390
12.9641    398
12.9741    382
12.9841    367
12.9941    382
13.0041    383
13.0141    372
13.0241    363
13.0341    380
13.0441    389
13.0541    371
13.0641    392
13.0741    415
13.0841    387
13.0941    369
13.1041    388
13.1141    375
13.1241    364
13.1341    395
13.1441    403
13.1541    403
13.1641    386
13.1741    382
13.1841    405
13.1941    407
13.2041    415
13.2141    403
13.2241    401
13.2341    404
13.2441    400
13.2541    391
13.2641    413
13.2741    438
13.2841    443
13.2941    443
13.3041    456
13.3141    455
13.3241    442
13.3341    454
13.3441    472
13.3541    471
13.3641    481
13.3741    455
13.3841    456
13.3941    447
13.4041    470
13.4141    495
13.4241    466
13.4341    498
13.4441    484
13.4541    479
13.4641    487
13.4741    445
13.4841    453
13.4941    481
13.5041    480
13.5141    464
13.5241    478
13.5341    456
13.5441    407
13.5541    411
13.5641    435
13.5741    447
13.5841    456
13.5941    469
13.6041    454
13.6141    426
13.6241    430
13.6341    434
13.6441    434
13.6541    450
13.6641    435
13.6741    436
13.6841    453
13.6941    428
13.7041    420
13.7141    433
13.7241    454
13.7341    463
13.7441    466
13.7541    459
13.7641    435
13.7741    445
13.7841    449
13.7941    446
13.8041    460
13.8141    453
13.8241    453
13.8341    470
13.8441    484
13.8541    492
13.8641    468
13.8741    461
13.8841    467
13.8941    469
13.9041    475
13.9141    464
13.9241    461
13.9341    462
13.9441    465
13.9541    479
13.9641    513
13.9741    514
13.9841    502
13.9941    499
14.0041    532
14.0141    564
14.0241    545
14.0341    509
14.0441    521
14.0541    559
14.0641    548
14.0741    556
14.0841    577
14.0941    604
14.1041    619
14.1141    597
14.1241    582
14.1341    599
14.1441    609
14.1541    602
14.1641    593
14.1741    608
14.1841    599
14.1941    590
14.2041    610
14.2141    572
14.2241    570
14.2341    598
14.2441    570
14.2541    529
14.2641    514
14.2741    535
14.2841    535
14.2941    524
14.3041    516
14.3141    513
14.3241    519
14.3341    528
14.3441    530
14.3541    539
14.3641    552
14.3741    554
14.3841    531
14.3941    518
14.4041    517
14.4141    528
14.4241    561
14.4341    543
14.4441    538
14.4541    546
14.4641    541
14.4741    530
14.4841    549
14.4941    524
14.5041    520
14.5141    531
14.5241    527
14.5341    538
14.5441    545
14.5541    561
14.5641    577
14.5741    549
14.5841    528
14.5941    537
14.6041    562
14.6141    549
14.6241    535
14.6341    533
14.6441    518
14.6541    516
14.6641    546
14.6741    564
14.6841    562
14.6941    558
14.7041    550
14.7141    557
14.7241    569
14.7341    534
14.7441    551
14.7541    577
14.7641    555
14.7741    565
14.7841    589
14.7941    590
14.8041    580
14.8141    567
14.8241    563
14.8341    597
14.8441    613
14.8541    564
14.8641    557
14.8741    583
14.8841    571
14.8941    569
14.9041    569
14.9141    602
14.9241    610
14.9341    601
14.9441    615
14.9541    619
14.9641    591
14.9741    604
14.9841    606
14.9941    590
15.0041    601
15.0141    590
15.0241    586
15.0341    582
15.0441    569
15.0541    585
15.0641    621
15.0741    618
15.0841    592
15.0941    631
15.1041    628
15.1141    612
15.1241    609
15.1341    597
15.1441    604
15.1541    597
15.1641    595
15.1741    599
15.1841    627
15.1941    595
15.2041    578
15.2141    612
15.2241    599
15.2341    612
15.2441    632
15.2541    604
15.2641    606
15.2741    614
15.2841    603
15.2941    609
15.3041    636
15.3141    634
15.3241    628
15.3341    615
15.3441    619
15.3541    636
15.3641    642
15.3741    649
15.3841    629
15.3941    638
15.4041    641
15.4141    610
15.4241    631
15.4341    641
15.4441    651
15.4541    648
15.4641    633
15.4741    624
15.4841    608
15.4941    616
15.5041    647
15.5141    660
15.5241    615
15.5341    663
15.5441    698
15.5541    713
15.5641    707
15.5741    738
15.5841    756
15.5941    779
15.6041    772
15.6141    816
15.6241    828
15.6341    852
15.6441    871
15.6541    892
15.6641    945
15.6741    949
15.6841    954
15.6941    977
15.7041   1000
15.7141    997
15.7241    991
15.7341    968
15.7441   1002
15.7541   1028
15.7641    952
15.7741    954
15.7841   1050
15.7941   1007
15.8041    988
15.8141    959
15.8241    977
15.8341    950
15.8441    916
15.8541    912
15.8641    841
15.8741    832
15.8841    815
15.8941    798
15.9041    806
15.9141    798
15.9241    779
15.9341    754
15.9441    713
15.9541    734
15.9641    725
15.9741    698
15.9841    727
15.9941    700
16.0041    694
16.0141    702
16.0241    718
16.0341    716
16.0441    726
16.0541    699
16.0641    705
16.0741    710
16.0841    714
16.0941    749
16.1041    695
16.1141    666
16.1241    716
16.1341    732
16.1441    716
16.1541    736
16.1641    783
16.1741    750
16.1841    726
16.1941    729
16.2041    744
16.2141    748
16.2241    710
16.2341    748
16.2441    789
16.2541    759
16.2641    734
16.2741    742
16.2841    734
16.2941    722
16.3041    714
16.3141    730
16.3241    737
16.3341    767
16.3441    760
16.3541    769
16.3641    761
16.3741    752
16.3841    759
16.3941    779
16.4041    765
16.4141    778
16.4241    753
16.4341    737
16.4441    808
16.4541    819
16.4641    793
16.4741    729
16.4841    738
16.4941    739
16.5041    763
16.5141    791
16.5241    766
16.5341    769
16.5441    747
16.5541    759
16.5641    781
16.5741    820
16.5841    785
16.5941    766
16.6041    804
16.6141    769
16.6241    773
16.6341    819
16.6441    823
16.6541    821
16.6641    817
16.6741    821
16.6841    799
16.6941    813
16.7041    800
16.7141    768
16.7241    802
16.7341    801
16.7441    822
16.7541    856
16.7641    796
16.7741    820
16.7841    841
16.7941    865
16.8041    836
16.8141    827
16.8241    827
16.8341    807
16.8441    822
16.8541    817
16.8641    798
16.8741    784
16.8841    790
16.8941    765
16.9041    806
16.9141    840
16.9241    848
16.9341    847
16.9441    800
16.9541    856
16.9641    821
16.9741    855
16.9841    869
16.9941    829
17.0041    834
17.0141    863
17.0241    847
17.0341    839
17.0441    846
17.0541    827
17.0641    825
17.0741    851
17.0841    856
17.0941    858
17.1041    842
17.1141    826
17.1241    828
17.1341    884
17.1441    850
17.1541    833
17.1641    855
17.1741    884
17.1841    884
17.1941    851
17.2041    847
17.2141    833
17.2241    853
17.2341    882
17.2441    863
17.2541    873
17.2641    865
17.2741    837
17.2841    852
17.2941    874
17.3041    877
17.3141    858
17.3241    856
17.3341    828
17.3441    860
17.3541    851
17.3641    906
17.3741    918
17.3841    900
17.3941    872
17.4041    846
17.4141    919
17.4241    934
17.4341    904
17.4441    894
17.4541    900
17.4641    946
17.4741    942
17.4841    902
17.4941    936
17.5041    928
17.5141    911
17.5241    900
17.5341    906
17.5441    941
17.5541    928
17.5641    958
17.5741    969
17.5841    967
17.5941   1001
17.6041   1022
17.6141    970
17.6241    976
17.6341   1002
17.6441   1033
17.6541   1008
17.6641    997
17.6741    973
17.6841    951
17.6941    970
17.7041   1020
17.7141   1001
17.7241    963
17.7341    905
17.7441    959
17.7541    983
17.7641    956
17.7741    994
17.7841    965
17.7941    977
17.8041   1021
17.8141    999
17.8241    968
17.8341    976
17.8441   1032
17.8541    984
17.8641    989
17.8741    941
17.8841    958
17.8941    966
17.9041    960
17.9141    955
17.9241    933
17.9341    993
17.9441    966
17.9541    978
17.9641    979
17.9741    995
17.9841    984
17.9941   1009
18.0041    998
18.0141    966
18.0241    932
18.0341    980
18.0441   1020
18.0541    972
18.0641    962
18.0741    972
18.0841    980
18.0941    965
18.1041    991
18.1141    979
18.1241    996
18.1341    963
18.1441    970
18.1541   1045
18.1641   1017
18.1741    950
18.1841    941
18.1941    978
18.2041    990
18.2141    983
18.2241    987
18.2341    992
18.2441   1007
18.2541   1012
18.2641   1002
18.2741    958
18.2841    978
18.2941    954
18.3041   1001
18.3141    993
18.3241   1019
18.3341   1055
18.3441    984
18.3541    988
18.3641    985
18.3741    979
18.3841   1013
18.3941   1022
18.4041   1005
18.4141   1037
18.4241   1016
18.4341   1002
18.4441    990
18.4541    982
18.4641   1003
18.4741    987
18.4841   1048
18.4941   1031
18.5041   1017
18.5141   1014
18.5241   1032
18.5341   1042
18.5441   1021
18.5541   1033
18.5641   1048
18.5741   1044
18.5841   1042
18.5941   1044
18.6041   1028
18.6141   1003
18.6241   1031
18.6341   1094
18.6441   1020
18.6541   1012
18.6641   1007
18.6741   1019
18.6841   1040
18.6941   1004
18.7041   1028
18.7141   1049
18.7241   1093
18.7341   1075
18.7441   1036
18.7541   1051
18.7641   1013
18.7741   1021
18.7841   1062
18.7941   1025
18.8041   1033
18.8141   1014
18.8241    996
18.8341   1043
18.8441   1045
18.8541   1075
18.8641   1076
18.8741   1079
18.8841   1052
18.8941   1075
18.9041   1030
18.9141   1050
18.9241   1083
18.9341   1048
18.9441   1069
18.9541   1100
18.9641   1074
18.9741   1071
18.9841   1056
18.9941   1026
19.0041   1089
19.0141   1106
19.0241   1044
19.0341   1046
19.0441   1089
19.0541   1062
19.0641   1022
19.0741   1017
19.0841   1062
19.0941   1101
19.1041   1096
19.1141   1084
19.1241   1082
19.1341   1096
19.1441   1072
19.1541   1076
19.1641   1076
19.1741   1094
19.1841   1094
19.1941   1119
19.2041   1101
19.2141   1061
19.2241   1087
19.2341   1048
19.2441   1071
19.2541   1075
19.2641   1109
19.2741   1070
19.2841   1074
19.2941   1058
19.3041   1094
19.3141   1095
19.3241   1043
19.3341   1010
19.3441   1055
19.3541   1101
19.3641   1058
19.3741   1082
19.3841   1120
19.3941   1124
19.4041   1086
19.4141   1063
19.4241   1118
19.4341   1117
19.4441   1096
19.4541   1130
19.4641   1125
19.4741   1143
19.4841   1158
19.4941   1146
19.5041   1154
19.5141   1088
19.5241   1053
19.5341   1148
19.5441   1087
19.5541   1069
19.5641   1102
19.5741   1104
19.5841   1119
19.5941   1141
19.6041   1130
19.6141   1104
19.6241   1096
19.6341   1110
19.6441   1130
19.6541   1051
19.6641   1166
19.6741   1120
19.6841   1098
19.6941   1113
19.7041   1117
19.7141   1110
19.7241   1128
19.7341   1133
19.7441   1121
19.7541   1148
19.7641   1118
19.7741   1100
19.7841   1138
19.7941   1116
19.8041   1086
19.8141   1118
19.8241   1132
19.8341   1116
19.8441   1161
19.8541   1085
19.8641   1164
19.8741   1154
19.8841   1129
19.8941   1133
19.9041   1157
19.9141   1134
19.9241   1144
19.9341   1113
19.9441   1114
19.9541   1169
19.9641   1129
19.9741   1136
19.9841   1160
19.9941   1114
20.0041   1166
20.0141   1159
20.0241   1137
20.0341   1105
20.0441   1122
20.0541   1153
20.0641   1117
20.0741   1106
20.0841   1148
20.0941   1099
20.1041   1159
20.1141   1101
20.1241   1128
20.1341   1124
20.1441   1126
20.1541   1152
20.1641   1167
20.1741   1162
20.1841   1183
20.1941   1139
20.2041   1124
20.2141   1150
20.2241   1150
20.2341   1164
20.2441   1173
20.2541   1150
20.2641   1170
20.2741   1112
20.2841   1180
20.2941   1172
20.3041   1155
20.3141   1165
20.3241   1115
20.3341   1180
20.3441   1161
20.3541   1205
20.3641   1173
20.3741   1156
20.3841   1161
20.3941   1172
20.4041   1097
20.4141   1161
20.4241   1145
20.4341   1124
20.4441   1115
20.4541   1138
20.4641   1171
20.4741   1181
20.4841   1183
20.4941   1193
20.5041   1205
20.5141   1145
20.5241   1118
20.5341   1146
20.5441   1146
20.5541   1096
20.5641   1160
20.5741   1153
20.5841   1187
20.5941   1191
20.6041   1168
20.6141   1130
20.6241   1157
20.6341   1145
20.6441   1217
20.6541   1152
20.6641   1152
20.6741   1154
20.6841   1202
20.6941   1228
20.7041   1198
20.7141   1187
20.7241   1201
20.7341   1167
20.7441   1209
20.7541   1201
20.7641   1167
20.7741   1188
20.7841   1161
20.7941   1220
20.8041   1236
20.8141   1220
20.8241   1261
20.8341   1240
20.8441   1240
20.8541   1269
20.8641   1217
20.8741   1287
20.8841   1313
20.8941   1390
20.9041   1356
20.9141   1311
20.9241   1372
20.9341   1429
20.9441   1451
20.9541   1486
20.9641   1454
20.9741   1481
20.9841   1513
20.9941   1572
21.0041   1628
21.0141   1664
21.0241   1637
21.0341   1635
21.0441   1694
21.0541   1702
21.0641   1665
21.0741   1752
21.0841   1717
21.0941   1760
21.1041   1745
21.1141   1771
21.1241   1766
21.1341   1769
21.1441   1749
21.1541   1802
21.1641   1756
21.1741   1726
21.1841   1719
21.1941   1683
21.2041   1609
21.2141   1593
21.2241   1661
21.2341   1648
21.2441   1595
21.2541   1464
21.2641   1545
21.2741   1557
21.2841   1475
21.2941   1547
21.3041   1416
21.3141   1265
21.3241   1326
21.3341   1307
21.3441   1354
21.3541   1301
21.3641   1257
21.3741   1214
21.3841   1289
21.3941   1192
21.4041   1251
21.4141   1162
21.4241   1117
21.4341   1124
21.4441   1191
21.4541   1201
21.4641   1189
21.4741   1175
21.4841   1204
21.4941   1188
21.5041   1118
21.5141   1216
21.5241   1139
21.5341   1143
21.5441   1196
21.5541   1185
21.5641   1145
21.5741   1150
21.5841   1207
21.5941   1118
21.6041   1133
21.6141   1128
21.6241   1171
21.6341   1161
21.6441   1189
21.6541   1151
21.6641   1177
21.6741   1185
21.6841   1191
21.6941   1174
21.7041   1178
21.7141   1295
21.7241   1210
21.7341   1220
21.7441   1206
21.7541   1175
21.7641   1190
21.7741   1144
21.7841   1139
21.7941   1183
21.8041   1174
21.8141   1134
21.8241   1182
21.8341   1170
21.8441   1230
21.8541   1128
21.8641   1231
21.8741   1145
21.8841   1202
21.8941   1171
21.9041   1213
21.9141   1199
21.9241   1208
21.9341   1145
21.9441   1248
21.9541   1172
21.9641   1157
21.9741   1195
21.9841   1175
21.9941   1218
22.0041   1189
22.0141   1195
22.0241   1157
22.0341   1186
22.0441   1218
22.0541   1100
22.0641   1202
22.0741   1177
22.0841   1160
22.0941   1192
22.1041   1177
22.1141   1196
22.1241   1163
22.1341   1209
22.1441   1200
22.1541   1197
22.1641   1173
22.1741   1177
22.1841   1239
22.1941   1147
22.2041   1185
22.2141   1202
22.2241   1179
22.2341   1138
22.2441   1140
22.2541   1113
22.2641   1166
22.2741   1164
22.2841   1169
22.2941   1153
22.3041   1161
22.3141   1109
22.3241   1188
22.3341   1182
22.3441   1136
22.3541   1154
22.3641   1166
22.3741   1160
22.3841   1196
22.3941   1150
22.4041   1148
22.4141   1165
22.4241   1152
22.4341   1154
22.4441   1232
22.4541   1126
22.4641   1119
22.4741   1195
22.4841   1200
22.4941   1135
22.5041   1183
22.5141   1192
22.5241   1174
22.5341   1144
22.5441   1129
22.5541   1197
22.5641   1219
22.5741   1135
22.5841   1139
22.5941   1209
22.6041   1130
22.6141   1171
22.6241   1091
22.6341   1105
22.6441   1134
22.6541   1164
22.6641   1162
22.6741   1152
22.6841   1113
22.6941   1170
22.7041   1203
22.7141   1126
22.7241   1194
22.7341   1225
22.7441   1110
22.7541   1143
22.7641   1135
22.7741   1159
22.7841   1142
22.7941   1148
22.8041   1087
22.8141   1208
22.8241   1202
22.8341   1201
22.8441   1197
22.8541   1186
22.8641   1179
22.8741   1172
22.8841   1149
22.8941   1175
22.9041   1135
22.9141   1160
22.9241   1128
22.9341   1092
22.9441   1145
22.9541   1140
22.9641   1116
22.9741   1197
22.9841   1132
22.9941   1138
23.0041   1162
23.0141   1130
23.0241   1126
23.0341   1125
23.0441   1098
23.0541   1176
23.0641   1128
23.0741   1167
23.0841   1171
23.0941   1121
23.1041   1181
23.1141   1127
23.1241   1121
23.1341   1161
23.1441   1162
23.1541   1109
23.1641   1155
23.1741   1174
23.1841   1129
23.1941   1172
23.2041   1140
23.2141   1156
23.2241   1131
23.2341   1134
23.2441   1138
23.2541   1098
23.2641   1191
23.2741   1104
23.2841   1102
23.2941   1173
23.3041   1101
23.3141   1105
23.3241   1096
23.3341   1069
23.3441   1152
23.3541   1071
23.3641   1082
23.3741   1167
23.3841   1086
23.3941   1084
23.4041   1159
23.4141   1091
23.4241   1136
23.4341   1132
23.4441   1092
23.4541   1167
23.4641   1081
23.4741   1130
23.4841   1086
23.4941   1138
23.5041   1131
23.5141   1165
23.5241   1155
23.5341   1120
23.5441   1165
23.5541   1121
23.5641   1111
23.5741   1214
23.5841   1100
23.5941   1132
23.6041   1192
23.6141   1151
23.6241   1123
23.6341   1215
23.6441   1177
23.6541   1143
23.6641   1126
23.6741   1106
23.6841   1111
23.6941   1228
23.7041   1237
23.7141   1198
23.7241   1174
23.7341   1231
23.7441   1215
23.7541   1203
23.7641   1163
23.7741   1245
23.7841   1181
23.7941   1188
23.8041   1121
23.8141   1234
23.8241   1218
23.8341   1219
23.8441   1212
23.8541   1204
23.8641   1258
23.8741   1179
23.8841   1199
23.8941   1102
23.9041   1137
23.9141   1167
23.9241   1124
23.9341   1119
23.9441   1144
23.9541   1141
23.9641   1119
23.9741   1089
23.9841   1091
23.9941   1109
24.0041   1088
24.0141   1153
24.0241   1102
24.0341   1122
24.0441   1111
24.0541   1117
24.0641   1066
24.0741   1065
24.0841   1032
24.0941   1079
24.1041   1070
24.1141   1092
24.1241   1075
24.1341   1078
24.1441   1051
24.1541   1118
24.1641   1067
24.1741   1046
24.1841   1111
24.1941   1110
24.2041   1073
24.2141    982
24.2241   1081
24.2341   1086
24.2441   1144
24.2541   1126
24.2641   1056
24.2741   1095
24.2841   1111
24.2941   1094
24.3041   1071
24.3141   1061
24.3241   1057
24.3341   1052
24.3441   1076
24.3541   1151
24.3641   1140
24.3741   1120
24.3841   1103
24.3941   1033
24.4041   1107
24.4141   1073
24.4241   1034
24.4341   1082
24.4441   1041
24.4541   1053
24.4641    995
24.4741   1064
24.4841   1067
24.4941   1070
24.5041   1080
24.5141   1047
24.5241   1134
24.5341   1055
24.5441   1043
24.5541   1043
24.5641   1010
24.5741   1020
24.5841   1084
24.5941   1069
24.6041   1025
24.6141   1038
24.6241    984
24.6341   1112
24.6441   1065
24.6541   1065
24.6641   1041
24.6741   1059
24.6841   1033
24.6941   1061
24.7041   1073
24.7141   1078
24.7241   1078
24.7341   1036
24.7441   1044
24.7541   1020
24.7641   1027
24.7741   1000
24.7841   1027
24.7941   1030
24.8041   1040
24.8141   1073
24.8241   1018
24.8341   1020
24.8441   1045
24.8541   1034
24.8641   1034
24.8741   1094
24.8841   1058
24.8941   1083
24.9041   1003
24.9141   1031
24.9241   1077
24.9341   1054
24.9441   1016
24.9541   1032
24.9641   1015
24.9741   1017
24.9841    982
24.9941   1039
25.0041   1038
25.0141   1040
25.0241   1032
25.0341   1028
25.0441   1010
25.0541   1023
25.0641   1073
25.0741   1037
25.0841   1020
25.0941   1045
25.1041   1052
25.1141   1005
25.1241   1015
25.1341   1011
25.1441   1091
25.1541   1070
25.1641   1065
25.1741   1018
25.1841   1015
25.1941   1062
25.2041   1035
25.2141   1081
25.2241   1057
25.2341   1043
25.2441   1066
25.2541   1038
25.2641   1149
25.2741   1033
25.2841   1004
25.2941    995
25.3041   1042
25.3141   1045
25.3241   1024
25.3341    997
25.3441   1054
25.3541   1030
25.3641   1005
25.3741   1026
25.3841   1051
25.3941   1024
25.4041   1012
25.4141   1025
25.4241   1024
25.4341   1002
25.4441   1005
25.4541    966
25.4641   1015
25.4741    967
25.4841    949
25.4941    960
25.5041    986
25.5141   1022
25.5241    997
25.5341   1038
25.5441   1018
25.5541    993
25.5641    979
25.5741    928
25.5841    945
25.5941   1028
25.6041    983
25.6141    965
25.6241   1003
25.6341    971
25.6441    946
25.6541    959
25.6641    969
25.6741    987
25.6841    982
25.6941    996
25.7041    964
25.7141    974
25.7241    948
25.7341    974
25.7441    941
25.7541    975
25.7641    947
25.7741    932
25.7841    948
25.7941    944
25.8041    914
25.8141    972
25.8241    958
25.8341    991
25.8441   1001
25.8541    893
25.8641    978
25.8741    945
25.8841    959
25.8941    956
25.9041    966
25.9141    945
25.9241   1005
25.9341    982
25.9441    902
25.9541    955
25.9641    954
25.9741    944
25.9841    884
25.9941    930
26.0041    958
26.0141    915
26.0241    897
26.0341    951
26.0441    927
26.0541    920
26.0641    927
26.0741    970
26.0841    949
26.0941    926
26.1041    977
26.1141   1007
26.1241    984
26.1341    934
26.1441    944
26.1541    951
26.1641    951
26.1741    901
26.1841    924
26.1941    937
26.2041    987
26.2141    911
26.2241    983
26.2341    915
26.2441    885
26.2541    888
26.2641    911
26.2741    930
26.2841    898
26.2941    901
26.3041    913
26.3141    918
26.3241    879
26.3341    971
26.3441    970
26.3541    980
26.3641    948
26.3741    909
26.3841    923
26.3941    882
26.4041    893
26.4141    931
26.4241    928
26.4341    827
26.4441    889
26.4541    909
26.4641    903
26.4741    935
26.4841    896
26.4941    890
26.5041    906
26.5141    876
26.5241    924
26.5341    908
26.5441    869
26.5541    861
26.5641    869
26.5741    889
26.5841    926
26.5941    912
26.6041    927
26.6141    883
26.6241    837
26.6341    841
26.6441    919
26.6541    887
26.6641    924
26.6741    848
26.6841    862
26.6941    865
26.7041    864
26.7141    851
26.7241    868
26.7341    800
26.7441    845
26.7541    893
26.7641    863
26.7741    881
26.7841    854
26.7941    883
26.8041    844
26.8141    876
26.8241    826
26.8341    822
26.8441    887
26.8541    911
26.8641    903
26.8741    877
26.8841    839
26.8941    852
26.9041    817
26.9141    850
26.9241    902
26.9341    853
26.9441    873
26.9541    841
26.9641    805
26.9741    875
26.9841    915
26.9941    845
27.0041    857
27.0141    825
27.0241    882
27.0341    847
27.0441    897
27.0541    851
27.0641    872
27.0741    902
27.0841    871
27.0941    856
27.1041    874
27.1141    839
27.1241    862
27.1341    832
27.1441    818
27.1541    857
27.1641    836
27.1741    857
27.1841    857
27.1941    813
27.2041    809
27.2141    872
27.2241    877
27.2341    814
27.2441    800
27.2541    839
27.2641    831
27.2741    847
27.2841    887
27.2941    809
27.3041    805
27.3141    865
27.3241    855
27.3341    869
27.3441    848
27.3541    776
27.3641    812
27.3741    834
27.3841    817
27.3941    827
27.4041    788
27.4141    810
27.4241    811
27.4341    817
27.4441    831
27.4541    808
27.4641    865
27.4741    819
27.4841    803
27.4941    804
27.5041    817
27.5141    815
27.5241    784
27.5341    789
27.5441    778
27.5541    780
27.5641    820
27.5741    778
27.5841    774
27.5941    791
27.6041    779
27.6141    748
27.6241    778
27.6341    768
27.6441    799
27.6541    811
27.6641    785
27.6741    836
27.6841    825
27.6941    793
27.7041    798
27.7141    790
27.7241    830
27.7341    792
27.7441    755
27.7541    779
27.7641    777
27.7741    779
27.7841    703
27.7941    817
27.8041    796
27.8141    772
27.8241    753
27.8341    755
27.8441    770
27.8541    789
27.8641    777
27.8741    785
27.8841    801
27.8941    705
27.9041    793
27.9141    775
27.9241    763
27.9341    770
27.9441    736
27.9541    757
27.9641    781
27.9741    775
27.9841    763
27.9941    811
28.0041    771
28.0141    756
28.0241    716
28.0341    714
28.0441    732
28.0541    759
28.0641    758
28.0741    812
28.0841    760
28.0941    772
28.1041    740
28.1141    779
28.1241    776
28.1341    803
28.1441    770
28.1541    732
28.1641    705
28.1741    758
28.1841    721
28.1941    725
28.2041    723
28.2141    716
28.2241    753
28.2341    783
28.2441    736
28.2541    708
28.2641    704
28.2741    694
28.2841    744
28.2941    767
28.3041    763
28.3141    732
28.3241    737
28.3341    754
28.3441    693
28.3541    711
28.3641    738
28.3741    740
28.3841    722
28.3941    726
28.4041    718
28.4141    736
28.4241    727
28.4341    727
28.4441    756
28.4541    767
28.4641    723
28.4741    744
28.4841    714
28.4941    772
28.5041    747
28.5141    767
28.5241    774
28.5341    756
28.5441    713
28.5541    735
28.5641    726
28.5741    721
28.5841    712
28.5941    732
28.6041    695
28.6141    735
28.6241    705
28.6341    757
28.6441    670
28.6541    699
28.6641    741
28.6741    721
28.6841    707
28.6941    765
28.7041    648
28.7141    704
28.7241    745
28.7341    703
28.7441    705
28.7541    658
28.7641    691
28.7741    714
28.7841    683
28.7941    704
28.8041    714
28.8141    653
28.8241    699
28.8341    698
28.8441    716
28.8541    709
28.8641    651
28.8741    686
28.8841    634
28.8941    726
28.9041    742
28.9141    751
28.9241    705
28.9341    694
28.9441    711
28.9541    692
28.9641    663
28.9741    635
28.9841    716
28.9941    710
29.0041    694
29.0141    678
29.0241    658
29.0341    682
29.0441    657
29.0541    693
29.0641    669
29.0741    718
29.0841    634
29.0941    658
29.1041    682
29.1141    676
29.1241    654
29.1341    670
29.1441    654
29.1541    678
29.1641    663
29.1741    661
29.1841    671
29.1941    648
29.2041    682
29.2141    726
29.2241    628
29.2341    670
29.2441    637
29.2541    701
29.2641    667
29.2741    679
29.2841    690
29.2941    633
29.3041    642
29.3141    673
29.3241    631
29.3341    639
29.3441    631
29.3541    666
29.3641    685
29.3741    677
29.3841    659
29.3941    668
29.4041    675
29.4141    659
29.4241    649
29.4341    622
29.4441    641
29.4541    654
29.4641    667
29.4741    687
29.4841    675
29.4941    599
29.5041    650
29.5141    629
29.5241    639
29.5341    644
29.5441    640
29.5541    593
29.5641    577
29.5741    625
29.5841    586
29.5941    641
29.6041    605
29.6141    585
29.6241    622
29.6341    605
29.6441    618
29.6541    604
29.6641    637
29.6741    649
29.6841    627
29.6941    611
29.7041    581
29.7141    624
29.7241    636
29.7341    597
29.7441    602
29.7541    622
29.7641    621
29.7741    587
29.7841    615
29.7941    642
29.8041    630
29.8141    611
29.8241    582
29.8341    618
29.8441    618
29.8541    585
29.8641    606
29.8741    577
29.8841    622
29.8941    656
29.9041    580
29.9141    589
29.9241    614
29.9341    591
29.9441    608
29.9541    606
29.9641    609
29.9741    594
29.9841    608
29.9941    604
30.0041    576
30.0141    582
30.0241    615
30.0341    577
30.0441    580
30.0541    599
30.0641    613
30.0741    579
30.0841    607
30.0941    564
30.1041    544
30.1141    550
30.1241    588
30.1341    622
30.1441    557
30.1541    547
30.1641    584
30.1741    577
30.1841    573
30.1941    593
30.2041    582
30.2141    546
30.2241    597
30.2341    571
30.2441    585
30.2541    595
30.2641    569
30.2741    565
30.2841    563
30.2941    565
30.3041    588
30.3141    547
30.3241    539
30.3341    551
30.3441    552
30.3541    533
30.3641    571
30.3741    535
30.3841    550
30.3941    542
30.4041    497
30.4141    525
30.4241    565
30.4341    547
30.4441    561
30.4541    549
30.4641    534
30.4741    553
30.4841    544
30.4941    531
30.5041    577
30.5141    550
30.5241    544
30.5341    573
30.5441    572
30.5541    543
30.5641    542
30.5741    527
30.5841    537
30.5941    546
30.6041    543
30.6141    537
30.6241    543
30.6341    568
30.6441    551
30.6541    570
30.6641    566
30.6741    559
30.6841    573
30.6941    511
30.7041    513
30.7141    572
30.7241    548
30.7341    522
30.7441    543
30.7541    546
30.7641    555
30.7741    506
30.7841    582
30.7941    543
30.8041    549
30.8141    528
30.8241    536
30.8341    573
30.8441    520
30.8541    543
30.8641    538
30.8741    533
30.8841    522
30.8941    525
30.9041    542
30.9141    563
30.9241    522
30.9341    505
30.9441    504
30.9541    522
30.9641    548
30.9741    531
30.9841    534
30.9941    531
31.0041    503
31.0141    491
31.0241    483
31.0341    497
31.0441    555
31.0541    503
31.0641    494
31.0741    487
31.0841    506
31.0941    539
31.1041    491
31.1141    512
31.1241    473
31.1341    514
31.1441    495
31.1541    503
31.1641    492
31.1741    485
31.1841    479
31.1941    480
31.2041    508
31.2141    550
31.2241    493
31.2341    463
31.2441    506
31.2541    487
31.2641    531
31.2741    501
31.2841    494
31.2941    504
31.3041    485
31.3141    506
31.3241    499
31.3341    491
31.3441    498
31.3541    481
31.3641    503
31.3741    489
31.3841    490
31.3941    471
31.4041    506
31.4141    490
31.4241    489
31.4341    485
31.4441    479
31.4541    495
31.4641    490
31.4741    488
31.4841    459
31.4941    502
31.5041    463
31.5141    454
31.5241    505
31.5341    468
31.5441    469
31.5541    485
31.5641    489
31.5741    493
31.5841    480
31.5941    479
31.6041    455
31.6141    454
31.6241    450
31.6341    504
31.6441    489
31.6541    508
31.6641    486
31.6741    487
31.6841    462
31.6941    498
31.7041    484
31.7141    486
31.7241    464
31.7341    461
31.7441    469
31.7541    481
31.7641    449
31.7741    474
31.7841    494
31.7941    446
31.8041    471
31.8141    443
31.8241    479
31.8341    474
31.8441    468
31.8541    438
31.8641    422
31.8741    457
31.8841    455
31.8941    463
31.9041    448
31.9141    452
31.9241    473
31.9341    425
31.9441    459
31.9541    477
31.9641    462
31.9741    429
31.9841    434
31.9941    440
32.0041    449
32.0141    447
32.0241    453
32.0341    410
32.0441    441
32.0541    482
32.0641    455
32.0741    438
32.0841    436
32.0941    439
32.1041    471
32.1141    462
32.1241    431
32.1341    446
32.1441    427
32.1541    424
32.1641    439
32.1741    462
32.1841    438
32.1941    428
32.2041    415
32.2141    443
32.2241    431
32.2341    458
32.2441    452
32.2541    465
32.2641    422
32.2741    430
32.2841    433
32.2941    448
32.3041    442
32.3141    428
32.3241    405
32.3341    436
32.3441    392
32.3541    409
32.3641    465
32.3741    434
32.3841    428
32.3941    439
32.4041    408
32.4141    410
32.4241    396
32.4341    423
32.4441    401
32.4541    407
32.4641    398
32.4741    420
32.4841    429
32.4941    417
32.5041    418
32.5141    389
32.5241    380
32.5341    411
32.5441    394
32.5541    411
32.5641    389
32.5741    372
32.5841    406
32.5941    405
32.6041    387
32.6141    393
32.6241    432
32.6341    405
32.6441    404
32.6541    425
32.6641    382
32.6741    377
32.6841    399
32.6941    395
32.7041    403
32.7141    385
32.7241    416
32.7341    397
32.7441    361
32.7541    367
32.7641    383
32.7741    358
32.7841    367
32.7941    389
32.8041    364
32.8141    362
32.8241    358
32.8341    365
32.8441    386
32.8541    398
32.8641    377
32.8741    375
32.8841    409
32.8941    382
32.9041    346
32.9141    376
32.9241    384
32.9341    366
32.9441    362
32.9541    385
32.9641    380
32.9741    379
32.9841    367
32.9941    375
33.0041    369
33.0141    338
33.0241    386
33.0341    380
33.0441    371
33.0541    367
33.0641    368
33.0741    357
33.0841    365
33.0941    345
33.1041    370
33.1141    381
33.1241    384
33.1341    360
33.1441    375
33.1541    396
33.1641    362
33.1741    371
33.1841    341
33.1941    362
33.2041    342
33.2141    348
33.2241    351
33.2341    367
33.2441    366
33.2541    366
33.2641    358
33.2741    387
33.2841    351
33.2941    345
33.3041    372
33.3141    341
33.3241    344
33.3341    353
33.3441    332
33.3541    343
33.3641    352
33.3741    337
33.3841    331
33.3941    316
33.4041    343
33.4141    363
33.4241    358
33.4341    359
33.4441    340
33.4541    351
33.4641    341
33.4741    305
33.4841    329
33.4941    366
33.5041    347
33.5141    356
33.5241    317
33.5341    342
33.5441    326
33.5541    351
33.5641    344
33.5741    327
33.5841    341
33.5941    324
33.6041    357
33.6141    339
33.6241    360
33.6341    348
33.6441    335
33.6541    329
33.6641    334
33.6741    350
33.6841    307
33.6941    326
33.7041    327
33.7141    314
33.7241    317
33.7341    316
33.7441    341
33.7541    330
33.7641    326
33.7741    306
33.7841    314
33.7941    328
33.8041    327
33.8141    301
33.8241    318
33.8341    293
33.8441    304
33.8541    317
33.8641    337
33.8741    332
33.8841    329
33.8941    311
33.9041    286
33.9141    340
33.9241    325
33.9341    346
33.9441    303
33.9541    311
33.9641    292
33.9741    294
33.9841    316
33.9941    297
34.0041    300
34.0141    276
34.0241    298
34.0341    323
34.0441    279
34.0541    323
34.0641    306
34.0741    303
34.0841    342
34.0941    314
34.1041    315
34.1141    301
34.1241    285
34.1341    287
34.1441    295
34.1541    321
34.1641    328
34.1741    303
34.1841    299
34.1941    312
34.2041    307
34.2141    295
34.2241    282
34.2341    290
34.2441    275
34.2541    315
34.2641    310
34.2741    296
34.2841    309
34.2941    285
34.3041    318
34.3141    293
34.3241    338
34.3341    305
34.3441    297
34.3541    279
34.3641    288
34.3741    291
34.3841    260
34.3941    279
34.4041    265
34.4141    275
34.4241    291
34.4341    301
34.4441    298
34.4541    271
34.4641    308
34.4741    285
34.4841    284
34.4941    283
34.5041    269
34.5141    298
34.5241    293
34.5341    272
34.5441    278
34.5541    286
34.5641    289
34.5741    283
34.5841    279
34.5941    254
34.6041    274
34.6141    302
34.6241    278
34.6341    273
34.6441    286
34.6541    270
34.6641    249
34.6741    271
34.6841    287
34.6941    263
34.7041    294
34.7141    295
34.7241    261
34.7341    262
34.7441    256
34.7541    286
34.7641    270
34.7741    279
34.7841    273
34.7941    273
34.8041    261
34.8141    252
34.8241    261
34.8341    272
34.8441    287
34.8541    250
34.8641    267
34.8741    282
34.8841    286
34.8941    263
34.9041    278
34.9141    247
34.9241    270
34.9341    254
34.9441    238
34.9541    236
34.9641    272
34.9741    276
34.9841    228
34.9941    265
35.0041    263
35.0141    241
35.0241    264
35.0341    260
35.0441    259
35.0541    280
35.0641    223
35.0741    284
35.0841    262
35.0941    258
35.1041    289
35.1141    278
35.1241    250
35.1341    256
35.1441    267
35.1541    250
35.1641    238
35.1741    242
35.1841    252
35.1941    261
35.2041    271
35.2141    258
35.2241    238
35.2341    231
35.2441    264
35.2541    252
35.2641    249
35.2741    250
35.2841    250
35.2941    241
35.3041    253
35.3141    254
35.3241    245
35.3341    259
35.3441    254
35.3541    276
35.3641    246
35.3741    237
35.3841    231
35.3941    243
35.4041    225
35.4141    241
35.4241    244
35.4341    243
35.4441    246
35.4541    221
35.4641    214
35.4741    222
35.4841    236
35.4941    234
35.5041    231
35.5141    226
35.5241    239
35.5341    251
35.5441    248
35.5541    218
35.5641    245
35.5741    237
35.5841    249
35.5941    226
35.6041    228
35.6141    224
35.6241    228
35.6341    202
35.6441    223
35.6541    223
35.6641    252
35.6741    222
35.6841    214
35.6941    238
35.7041    225
35.7141    246
35.7241    227
35.7341    212
35.7441    224
35.7541    226
35.7641    243
35.7741    234
35.7841    229
35.7941    214
35.8041    208
35.8141    209
35.8241    232
35.8341    219
35.8441    215
35.8541    216
35.8641    245
35.8741    218
35.8841    215
35.8941    201
35.9041    218
35.9141    240
35.9241    208
35.9341    227
35.9441    229
35.9541    223
35.9641    204
35.9741    231
35.9841    184
35.9941    186
36.0041    212
36.0141    219
36.0241    226
36.0341    205
36.0441    227
36.0541    205
36.0641    207
36.0741    202
36.0841    205
36.0941    197
36.1041    193
36.1141    183
36.1241    195
36.1341    200
36.1441    197
36.1541    229
36.1641    204
36.1741    202
36.1841    219
36.1941    201
36.2041    205
36.2141    190
36.2241    180
36.2341    193
36.2441    187
36.2541    201
36.2641    189
36.2741    198
36.2841    197
36.2941    196
36.3041    192
36.3141    203
36.3241    208
36.3341    193
36.3441    181
36.3541    190
36.3641    183
36.3741    180
36.3841    173
36.3941    196
36.4041    171
36.4141    195
36.4241    192
36.4341    192
36.4441    206
36.4541    174
36.4641    192
36.4741    215
36.4841    170
36.4941    192
36.5041    198
36.5141    182
36.5241    209
36.5341    210
36.5441    200
36.5541    173
36.5641    190
36.5741    183
36.5841    200
36.5941    169
36.6041    182
36.6141    175
36.6241    175
36.6341    164
36.6441    171
36.6541    181
36.6641    168
36.6741    187
36.6841    184
36.6941    165
36.7041    163
36.7141    182
36.7241    195
36.7341    177
36.7441    183
36.7541    179
36.7641    173
36.7741    179
36.7841    169
36.7941    164
36.8041    170
36.8141    169
36.8241    164
36.8341    188
36.8441    191
36.8541    170
36.8641    162
36.8741    166
36.8841    146
36.8941    155
36.9041    171
36.9141    172
36.9241    148
36.9341    157
36.9441    163
36.9541    164
36.9641    165
36.9741    169
36.9841    168
36.9941    152
37.0041    173
37.0141    158
37.0241    148
37.0341    152
37.0441    171
37.0541    153
37.0641    157
37.0741    134
37.0841    172
37.0941    151
37.1041    149
37.1141    165
37.1241    179
37.1341    152
37.1441    147
37.1541    149
37.1641    159
37.1741    165
37.1841    142
37.1941    155
37.2041    158
37.2141    188
37.2241    156
37.2341    168
37.2441    146
37.2541    145
37.2641    180
37.2741    142
37.2841    164
37.2941    178
37.3041    152
37.3141    161
37.3241    148
37.3341    137
37.3441    164
37.3541    148
37.3641    157
37.3741    161
37.3841    149
37.3941    144
37.4041    136
37.4141    166
37.4241    164
37.4341    141
37.4441    149
37.4541    149
37.4641    165
37.4741    134
37.4841    155
37.4941    162
37.5041    137
37.5141    144
37.5241    152
37.5341    154
37.5441    147
37.5541    148
37.5641    135
37.5741    140
37.5841    138
37.5941    159
37.6041    149
37.6141    134
37.6241    129
37.6341    140
37.6441    148
37.6541    118
37.6641    140
37.6741    155
37.6841    129
37.6941    128
37.7041    122
37.7141    131
37.7241    141
37.7341    148
37.7441    126
37.7541    128
37.7641    139
37.7741    125
37.7841    147
37.7941    140
37.8041    122
37.8141    147
37.8241    148
37.8341    127
37.8441    138
37.8541    127
37.8641    138
37.8741    139
37.8841    120
37.8941    133
37.9041    137
37.9141    130
37.9241    132
37.9341    120
37.9441    115
37.9541    130
37.9641    144
37.9741    126
37.9841    139
37.9941    136
38.0041    114
38.0141    111
38.0241    150
38.0341    119
38.0441    132
38.0541    115
38.0641    125
38.0741    133
38.0841    112
38.0941    119
38.1041    115
38.1141    111
38.1241    110
38.1341    132
38.1441    124
38.1541    117
38.1641    129
38.1741    113
38.1841    121
38.1941    133
38.2041    120
38.2141    127
38.2241    124
38.2341    116
38.2441    122
38.2541    110
38.2641    125
38.2741    114
38.2841    114
38.2941    103
38.3041    111
38.3141    117
38.3241    114
38.3341    141
38.3441    118
38.3541    116
38.3641     96
38.3741    134
38.3841    124
38.3941    127
38.4041    106
38.4141    109
38.4241    122
38.4341    112
38.4441    118
38.4541    115
38.4641    114
38.4741    104
38.4841    134
38.4941    113
38.5041    106
38.5141    106
38.5241    115
38.5341    128
38.5441    124
38.5541    118
38.5641    109
38.5741    114
38.5841     96
38.5941     99
38.6041    110
38.6141    112
38.6241     96
38.6341    111
38.6441    103
38.6541    107
38.6641    108
38.6741    106
38.6841     96
38.6941    119
38.7041    111
38.7141     83
38.7241    110
38.7341    104
38.7441     81
38.7541    100
38.7641     76
38.7741    122
38.7841    106
38.7941    102
38.8041    103
38.8141    119
38.8241    109
38.8341    102
38.8441     99
38.8541    108
38.8641    111
38.8741    120
38.8841    102
38.8941    114
38.9041    128
38.9141     94
38.9241     94
38.9341     92
38.9441     84
38.9541     92
38.9641     95
38.9741     83
38.9841    105
38.9941    115
39.0041     95
39.0141     87
39.0241     96
39.0341     95
39.0441     98
39.0541     91
39.0641     95
39.0741     85
39.0841     89
39.0941     99
39.1041     95
39.1141     97
39.1241     92
39.1341    105
39.1441     96
39.1541     95
39.1641     82
39.1741     93
39.1841     82
39.1941    109
39.2041     89
39.2141     73
39.2241     98
39.2341     94
39.2441     76
39.2541     89
39.2641     85
39.2741    103
39.2841     77
39.2941     91
39.3041     89
39.3141     95
39.3241     83
39.3341     92
39.3441     95
39.3541     84
39.3641     64
39.3741     79
39.3841     94
39.3941     90
39.4041     83
39.4141     94
39.4241     80
39.4341     74
39.4441     74
39.4541     76
39.4641     79
39.4741     69
39.4841     84
39.4941     94
39.5041     85
39.5141     77
39.5241     67
39.5341     68
39.5441     70
39.5541     79
39.5641     84
39.5741     78
39.5841     74
39.5941     65
39.6041     84
39.6141     73
39.6241     88
39.6341     73
39.6441     78
39.6541     72
39.6641     76
39.6741     81
39.6841     86
39.6941     72
39.7041     65
39.7141     76
39.7241     65
39.7341     76
39.7441     68
39.7541     72
39.7641     74
39.7741     74
39.7841     76
39.7941     65
39.8041     73
39.8141     73
39.8241     74
39.8341     77
39.8441     79
39.8541     72
39.8641     65
39.8741     63
39.8841     71
39.8941     79
39.9041     69
39.9141     82
39.9241     65
39.9341     58
39.9441     62
39.9541     76
39.9641     64
39.9741     66
39.9841     76
39.9941     62
