Bruker Nano GmbH Berlin, Germany
Esprit 1.9

Date: 4/1/2021 4:05:42 PM
Real time: 35378
Life time: 33319
Pulse density: 80731


Detector type: XFlash 430
Window type: Custom type
Detector thickness: 0.45
Si dead layer:0.029

Calibration, lin.: 10
Calibration, abs.: -955.9
Mn FWHM: 137.05
Fano factor: 0.121
Channels: 4096

Energy Counts
-0.9559      0
-0.9459      0
-0.9359      0
-0.9259      0
-0.9159      0
-0.9059      0
-0.8959      0
-0.8859      0
-0.8759      0
-0.8659      0
-0.8559      0
-0.8459      0
-0.8359      0
-0.8259      0
-0.8159      0
-0.8059      0
-0.7959      0
-0.7859      0
-0.7759      0
-0.7659      0
-0.7559      0
-0.7459      0
-0.7359      0
-0.7259      0
-0.7159      0
-0.7059      0
-0.6959      0
-0.6859      0
-0.6759      0
-0.6659      0
-0.6559      0
-0.6459      0
-0.6359      0
-0.6259      0
-0.6159      0
-0.6059      0
-0.5959      0
-0.5859      0
-0.5759      0
-0.5659      0
-0.5559      0
-0.5459      0
-0.5359      0
-0.5259      0
-0.5159      0
-0.5059      0
-0.4959      0
-0.4859      0
-0.4759      0
-0.4659      0
-0.4559      0
-0.4459      0
-0.4359      0
-0.4259      0
-0.4159      0
-0.4059      0
-0.3959      0
-0.3859      0
-0.3759      0
-0.3659      0
-0.3559      0
-0.3459      0
-0.3359      0
-0.3259      0
-0.3159      0
-0.3059      0
-0.2959      0
-0.2859      0
-0.2759      0
-0.2659      0
-0.2559      0
-0.2459      0
-0.2359      0
-0.2259      0
-0.2159      0
-0.2059      0
-0.1959      0
-0.1859      0
-0.1759      0
-0.1659      0
-0.1559      0
-0.1459      0
-0.1359      0
-0.1259      1
-0.1159      0
-0.1059     20
-0.0959     85
-0.0859    359
-0.0759   1271
-0.0659   3801
-0.0559   9571
-0.0459  21058
-0.0359  39699
-0.0259  63773
-0.0159  87017
-0.0059 102347
 0.0041 102708
 0.0141  88376
 0.0241  65322
 0.0341  41301
 0.0441  22168
 0.0541  10329
 0.0641   4258
 0.0741   1428
 0.0841    423
 0.0941    138
 0.1041     39
 0.1141     15
 0.1241     15
 0.1341     22
 0.1441     14
 0.1541      9
 0.1641      9
 0.1741      8
 0.1841    351
 0.1941    693
 0.2041    584
 0.2141    577
 0.2241    583
 0.2341    629
 0.2441    599
 0.2541    628
 0.2641    636
 0.2741    634
 0.2841    574
 0.2941    621
 0.3041    596
 0.3141    603
 0.3241    586
 0.3341    564
 0.3441    568
 0.3541    554
 0.3641    585
 0.3741    556
 0.3841    498
 0.3941    560
 0.4041    568
 0.4141    541
 0.4241    555
 0.4341    548
 0.4441    533
 0.4541    547
 0.4641    512
 0.4741    514
 0.4841    522
 0.4941    518
 0.5041    504
 0.5141    507
 0.5241    504
 0.5341    512
 0.5441    503
 0.5541    490
 0.5641    485
 0.5741    492
 0.5841    503
 0.5941    476
 0.6041    479
 0.6141    488
 0.6241    491
 0.6341    477
 0.6441    467
 0.6541    476
 0.6641    478
 0.6741    461
 0.6841    454
 0.6941    453
 0.7041    435
 0.7141    455
 0.7241    470
 0.7341    448
 0.7441    461
 0.7541    459
 0.7641    458
 0.7741    453
 0.7841    428
 0.7941    420
 0.8041    421
 0.8141    417
 0.8241    441
 0.8341    444
 0.8441    435
 0.8541    448
 0.8641    448
 0.8741    420
 0.8841    437
 0.8941    450
 0.9041    430
 0.9141    421
 0.9241    407
 0.9341    444
 0.9441    433
 0.9541    442
 0.9641    408
 0.9741    412
 0.9841    414
 0.9941    425
 1.0041    405
 1.0141    392
 1.0241    409
 1.0341    406
 1.0441    385
 1.0541    376
 1.0641    414
 1.0741    392
 1.0841    363
 1.0941    412
 1.1041    394
 1.1141    389
 1.1241    402
 1.1341    379
 1.1441    384
 1.1541    403
 1.1641    421
 1.1741    376
 1.1841    404
 1.1941    369
 1.2041    395
 1.2141    352
 1.2241    386
 1.2341    395
 1.2441    374
 1.2541    356
 1.2641    366
 1.2741    362
 1.2841    351
 1.2941    358
 1.3041    355
 1.3141    361
 1.3241    369
 1.3341    334
 1.3441    346
 1.3541    346
 1.3641    323
 1.3741    384
 1.3841    346
 1.3941    365
 1.4041    351
 1.4141    347
 1.4241    356
 1.4341    372
 1.4441    356
 1.4541    368
 1.4641    343
 1.4741    363
 1.4841    361
 1.4941    346
 1.5041    359
 1.5141    335
 1.5241    346
 1.5341    336
 1.5441    351
 1.5541    347
 1.5641    344
 1.5741    350
 1.5841    337
 1.5941    313
 1.6041    318
 1.6141    359
 1.6241    358
 1.6341    378
 1.6441    425
 1.6541    419
 1.6641    482
 1.6741    528
 1.6841    679
 1.6941    828
 1.7041    967
 1.7141   1069
 1.7241   1211
 1.7341   1319
 1.7441   1262
 1.7541   1216
 1.7641   1048
 1.7741    989
 1.7841    845
 1.7941    727
 1.8041    609
 1.8141    506
 1.8241    495
 1.8341    459
 1.8441    424
 1.8541    401
 1.8641    400
 1.8741    380
 1.8841    350
 1.8941    353
 1.9041    342
 1.9141    360
 1.9241    340
 1.9341    380
 1.9441    369
 1.9541    362
 1.9641    386
 1.9741    415
 1.9841    429
 1.9941    403
 2.0041    391
 2.0141    389
 2.0241    421
 2.0341    426
 2.0441    396
 2.0541    372
 2.0641    389
 2.0741    363
 2.0841    365
 2.0941    334
 2.1041    333
 2.1141    303
 2.1241    326
 2.1341    341
 2.1441    322
 2.1541    307
 2.1641    288
 2.1741    300
 2.1841    295
 2.1941    317
 2.2041    314
 2.2141    340
 2.2241    279
 2.2341    315
 2.2441    285
 2.2541    301
 2.2641    320
 2.2741    276
 2.2841    311
 2.2941    295
 2.3041    327
 2.3141    319
 2.3241    284
 2.3341    300
 2.3441    278
 2.3541    290
 2.3641    292
 2.3741    283
 2.3841    279
 2.3941    300
 2.4041    280
 2.4141    287
 2.4241    277
 2.4341    262
 2.4441    327
 2.4541    281
 2.4641    302
 2.4741    300
 2.4841    282
 2.4941    272
 2.5041    276
 2.5141    278
 2.5241    286
 2.5341    266
 2.5441    286
 2.5541    260
 2.5641    271
 2.5741    287
 2.5841    260
 2.5941    249
 2.6041    278
 2.6141    268
 2.6241    269
 2.6341    245
 2.6441    276
 2.6541    234
 2.6641    270
 2.6741    259
 2.6841    269
 2.6941    256
 2.7041    259
 2.7141    245
 2.7241    256
 2.7341    240
 2.7441    261
 2.7541    246
 2.7641    254
 2.7741    268
 2.7841    238
 2.7941    256
 2.8041    289
 2.8141    273
 2.8241    293
 2.8341    261
 2.8441    289
 2.8541    266
 2.8641    265
 2.8741    255
 2.8841    245
 2.8941    245
 2.9041    262
 2.9141    258
 2.9241    247
 2.9341    233
 2.9441    273
 2.9541    231
 2.9641    254
 2.9741    248
 2.9841    207
 2.9941    245
 3.0041    221
 3.0141    242
 3.0241    242
 3.0341    239
 3.0441    245
 3.0541    251
 3.0641    237
 3.0741    210
 3.0841    207
 3.0941    249
 3.1041    215
 3.1141    224
 3.1241    233
 3.1341    236
 3.1441    223
 3.1541    228
 3.1641    213
 3.1741    212
 3.1841    227
 3.1941    198
 3.2041    228
 3.2141    203
 3.2241    207
 3.2341    260
 3.2441    253
 3.2541    270
 3.2641    280
 3.2741    308
 3.2841    287
 3.2941    310
 3.3041    292
 3.3141    309
 3.3241    280
 3.3341    310
 3.3441    296
 3.3541    266
 3.3641    248
 3.3741    250
 3.3841    234
 3.3941    223
 3.4041    226
 3.4141    212
 3.4241    188
 3.4341    194
 3.4441    182
 3.4541    207
 3.4641    169
 3.4741    218
 3.4841    222
 3.4941    217
 3.5041    199
 3.5141    209
 3.5241    206
 3.5341    180
 3.5441    247
 3.5541    257
 3.5641    268
 3.5741    320
 3.5841    345
 3.5941    446
 3.6041    535
 3.6141    637
 3.6241    799
 3.6341   1013
 3.6441   1263
 3.6541   1407
 3.6641   1542
 3.6741   1690
 3.6841   1754
 3.6941   1713
 3.7041   1685
 3.7141   1548
 3.7241   1431
 3.7341   1233
 3.7441   1036
 3.7541    810
 3.7641    647
 3.7741    489
 3.7841    426
 3.7941    307
 3.8041    241
 3.8141    233
 3.8241    208
 3.8341    183
 3.8441    195
 3.8541    164
 3.8641    160
 3.8741    166
 3.8841    159
 3.8941    185
 3.9041    165
 3.9141    194
 3.9241    226
 3.9341    240
 3.9441    247
 3.9541    243
 3.9641    275
 3.9741    311
 3.9841    331
 3.9941    360
 4.0041    392
 4.0141    355
 4.0241    367
 4.0341    313
 4.0441    332
 4.0541    276
 4.0641    270
 4.0741    242
 4.0841    232
 4.0941    198
 4.1041    171
 4.1141    171
 4.1241    150
 4.1341    152
 4.1441    155
 4.1541    136
 4.1641    156
 4.1741    140
 4.1841    161
 4.1941    158
 4.2041    148
 4.2141    151
 4.2241    131
 4.2341    132
 4.2441    158
 4.2541    143
 4.2641    169
 4.2741    149
 4.2841    157
 4.2941    147
 4.3041    129
 4.3141    131
 4.3241    153
 4.3341    168
 4.3441    144
 4.3541    153
 4.3641    154
 4.3741    143
 4.3841    161
 4.3941    152
 4.4041    193
 4.4141    202
 4.4241    228
 4.4341    233
 4.4441    272
 4.4541    276
 4.4641    308
 4.4741    363
 4.4841    360
 4.4941    342
 4.5041    355
 4.5141    334
 4.5241    363
 4.5341    314
 4.5441    325
 4.5541    284
 4.5641    257
 4.5741    242
 4.5841    200
 4.5941    183
 4.6041    178
 4.6141    146
 4.6241    173
 4.6341    149
 4.6441    142
 4.6541    169
 4.6641    156
 4.6741    163
 4.6841    145
 4.6941    138
 4.7041    160
 4.7141    141
 4.7241    122
 4.7341    136
 4.7441    123
 4.7541    155
 4.7641    142
 4.7741    138
 4.7841    153
 4.7941    120
 4.8041    151
 4.8141    123
 4.8241    155
 4.8341    131
 4.8441    151
 4.8541    164
 4.8641    164
 4.8741    179
 4.8841    165
 4.8941    181
 4.9041    175
 4.9141    183
 4.9241    174
 4.9341    174
 4.9441    169
 4.9541    168
 4.9641    167
 4.9741    186
 4.9841    181
 4.9941    165
 5.0041    165
 5.0141    152
 5.0241    153
 5.0341    165
 5.0441    149
 5.0541    139
 5.0641    144
 5.0741    160
 5.0841    149
 5.0941    149
 5.1041    165
 5.1141    144
 5.1241    154
 5.1341    133
 5.1441    138
 5.1541    159
 5.1641    161
 5.1741    148
 5.1841    127
 5.1941    154
 5.2041    149
 5.2141    145
 5.2241    165
 5.2341    162
 5.2441    142
 5.2541    127
 5.2641    138
 5.2741    138
 5.2841    142
 5.2941    139
 5.3041    152
 5.3141    145
 5.3241    144
 5.3341    151
 5.3441    155
 5.3541    145
 5.3641    175
 5.3741    176
 5.3841    184
 5.3941    176
 5.4041    213
 5.4141    221
 5.4241    197
 5.4341    188
 5.4441    175
 5.4541    181
 5.4641    184
 5.4741    185
 5.4841    183
 5.4941    159
 5.5041    163
 5.5141    161
 5.5241    161
 5.5341    160
 5.5441    153
 5.5541    150
 5.5641    154
 5.5741    182
 5.5841    157
 5.5941    165
 5.6041    154
 5.6141    144
 5.6241    147
 5.6341    160
 5.6441    177
 5.6541    153
 5.6641    149
 5.6741    167
 5.6841    158
 5.6941    150
 5.7041    172
 5.7141    169
 5.7241    155
 5.7341    173
 5.7441    165
 5.7541    174
 5.7641    197
 5.7741    195
 5.7841    188
 5.7941    182
 5.8041    193
 5.8141    199
 5.8241    207
 5.8341    219
 5.8441    228
 5.8541    260
 5.8641    260
 5.8741    258
 5.8841    241
 5.8941    260
 5.9041    250
 5.9141    264
 5.9241    265
 5.9341    246
 5.9441    228
 5.9541    208
 5.9641    256
 5.9741    221
 5.9841    229
 5.9941    204
 6.0041    180
 6.0141    179
 6.0241    168
 6.0341    183
 6.0441    175
 6.0541    203
 6.0641    169
 6.0741    165
 6.0841    173
 6.0941    178
 6.1041    212
 6.1141    172
 6.1241    188
 6.1341    212
 6.1441    186
 6.1541    193
 6.1641    216
 6.1741    195
 6.1841    201
 6.1941    208
 6.2041    231
 6.2141    248
 6.2241    291
 6.2341    317
 6.2441    369
 6.2541    488
 6.2641    571
 6.2741    664
 6.2841    883
 6.2941   1097
 6.3041   1421
 6.3141   1739
 6.3241   2115
 6.3341   2389
 6.3441   2865
 6.3541   3211
 6.3641   3543
 6.3741   3889
 6.3841   3921
 6.3941   4195
 6.4041   4088
 6.4141   4051
 6.4241   3772
 6.4341   3397
 6.4441   3053
 6.4541   2719
 6.4641   2371
 6.4741   1902
 6.4841   1506
 6.4941   1236
 6.5041   1059
 6.5141    781
 6.5241    627
 6.5341    489
 6.5441    409
 6.5541    344
 6.5641    269
 6.5741    241
 6.5841    232
 6.5941    195
 6.6041    228
 6.6141    204
 6.6241    227
 6.6341    200
 6.6441    249
 6.6541    220
 6.6641    192
 6.6741    232
 6.6841    250
 6.6941    247
 6.7041    232
 6.7141    253
 6.7241    233
 6.7341    238
 6.7441    261
 6.7541    218
 6.7641    246
 6.7741    213
 6.7841    240
 6.7941    250
 6.8041    259
 6.8141    264
 6.8241    234
 6.8341    255
 6.8441    263
 6.8541    297
 6.8641    228
 6.8741    277
 6.8841    273
 6.8941    314
 6.9041    273
 6.9141    345
 6.9241    343
 6.9341    367
 6.9441    397
 6.9541    464
 6.9641    497
 6.9741    577
 6.9841    593
 6.9941    710
 7.0041    708
 7.0141    806
 7.0241    850
 7.0341    852
 7.0441    909
 7.0541    865
 7.0641    891
 7.0741    855
 7.0841    839
 7.0941    835
 7.1041    723
 7.1141    687
 7.1241    632
 7.1341    587
 7.1441    536
 7.1541    495
 7.1641    437
 7.1741    452
 7.1841    386
 7.1941    354
 7.2041    329
 7.2141    352
 7.2241    291
 7.2341    344
 7.2441    326
 7.2541    349
 7.2641    368
 7.2741    324
 7.2841    332
 7.2941    371
 7.3041    379
 7.3141    367
 7.3241    403
 7.3341    400
 7.3441    418
 7.3541    475
 7.3641    385
 7.3741    426
 7.3841    459
 7.3941    448
 7.4041    434
 7.4141    454
 7.4241    456
 7.4341    403
 7.4441    468
 7.4541    450
 7.4641    427
 7.4741    428
 7.4841    418
 7.4941    395
 7.5041    413
 7.5141    396
 7.5241    338
 7.5341    350
 7.5441    340
 7.5541    377
 7.5641    342
 7.5741    372
 7.5841    349
 7.5941    370
 7.6041    335
 7.6141    346
 7.6241    354
 7.6341    325
 7.6441    364
 7.6541    340
 7.6641    396
 7.6741    336
 7.6841    370
 7.6941    360
 7.7041    384
 7.7141    425
 7.7241    390
 7.7341    464
 7.7441    444
 7.7541    403
 7.7641    457
 7.7741    434
 7.7841    432
 7.7941    477
 7.8041    472
 7.8141    477
 7.8241    466
 7.8341    499
 7.8441    489
 7.8541    512
 7.8641    556
 7.8741    575
 7.8841    596
 7.8941    618
 7.9041    641
 7.9141    689
 7.9241    662
 7.9341    695
 7.9441    703
 7.9541    736
 7.9641    816
 7.9741    845
 7.9841    906
 7.9941    980
 8.0041   1099
 8.0141   1135
 8.0241   1243
 8.0341   1341
 8.0441   1463
 8.0541   1515
 8.0641   1651
 8.0741   1752
 8.0841   1741
 8.0941   1928
 8.1041   2065
 8.1141   2083
 8.1241   2243
 8.1341   2231
 8.1441   2399
 8.1541   2430
 8.1641   2563
 8.1741   2414
 8.1841   2544
 8.1941   2518
 8.2041   2589
 8.2141   2588
 8.2241   2544
 8.2341   2624
 8.2441   2766
 8.2541   2776
 8.2641   2858
 8.2741   3071
 8.2841   3198
 8.2941   3326
 8.3041   3684
 8.3141   3865
 8.3241   4062
 8.3341   4411
 8.3441   4924
 8.3541   4920
 8.3641   5149
 8.3741   5389
 8.3841   5401
 8.3941   5340
 8.4041   5151
 8.4141   5027
 8.4241   4840
 8.4341   4524
 8.4441   4074
 8.4541   3670
 8.4641   3170
 8.4741   2833
 8.4841   2431
 8.4941   2123
 8.5041   1797
 8.5141   1525
 8.5241   1290
 8.5341   1129
 8.5441    988
 8.5541    891
 8.5641    751
 8.5741    673
 8.5841    618
 8.5941    637
 8.6041    626
 8.6141    583
 8.6241    581
 8.6341    607
 8.6441    588
 8.6541    597
 8.6641    637
 8.6741    620
 8.6841    629
 8.6941    656
 8.7041    644
 8.7141    639
 8.7241    627
 8.7341    651
 8.7441    639
 8.7541    634
 8.7641    674
 8.7741    671
 8.7841    646
 8.7941    677
 8.8041    641
 8.8141    665
 8.8241    665
 8.8341    679
 8.8441    682
 8.8541    680
 8.8641    662
 8.8741    709
 8.8841    715
 8.8941    685
 8.9041    705
 8.9141    701
 8.9241    718
 8.9341    749
 8.9441    765
 8.9541    721
 8.9641    662
 8.9741    724
 8.9841    715
 8.9941    701
 9.0041    728
 9.0141    796
 9.0241    757
 9.0341    796
 9.0441    800
 9.0541    830
 9.0641    814
 9.0741    851
 9.0841    867
 9.0941    907
 9.1041    903
 9.1141    957
 9.1241    976
 9.1341   1062
 9.1441   1103
 9.1541   1155
 9.1641   1142
 9.1741   1197
 9.1841   1274
 9.1941   1324
 9.2041   1374
 9.2141   1472
 9.2241   1525
 9.2341   1593
 9.2441   1586
 9.2541   1695
 9.2641   1785
 9.2741   1893
 9.2841   1989
 9.2941   1993
 9.3041   2096
 9.3141   2168
 9.3241   2269
 9.3341   2374
 9.3441   2427
 9.3541   2395
 9.3641   2470
 9.3741   2519
 9.3841   2542
 9.3941   2569
 9.4041   2661
 9.4141   2672
 9.4241   2675
 9.4341   2780
 9.4441   2753
 9.4541   2816
 9.4641   2782
 9.4741   2818
 9.4841   2687
 9.4941   2794
 9.5041   2926
 9.5141   2934
 9.5241   3045
 9.5341   3201
 9.5441   3232
 9.5541   3354
 9.5641   3519
 9.5741   3748
 9.5841   4012
 9.5941   4216
 9.6041   4311
 9.6141   4549
 9.6241   4818
 9.6341   5046
 9.6441   5111
 9.6541   5178
 9.6641   5150
 9.6741   5237
 9.6841   4996
 9.6941   4998
 9.7041   4738
 9.7141   4435
 9.7241   4285
 9.7341   4017
 9.7441   3699
 9.7541   3337
 9.7641   3108
 9.7741   2867
 9.7841   2693
 9.7941   2560
 9.8041   2418
 9.8141   2252
 9.8241   2239
 9.8341   2186
 9.8441   2247
 9.8541   2250
 9.8641   2161
 9.8741   2201
 9.8841   2276
 9.8941   2348
 9.9041   2272
 9.9141   2463
 9.9241   2517
 9.9341   2479
 9.9441   2498
 9.9541   2481
 9.9641   2442
 9.9741   2362
 9.9841   2419
 9.9941   2218
10.0041   2101
10.0141   1969
10.0241   1790
10.0341   1618
10.0441   1494
10.0541   1330
10.0641   1218
10.0741   1078
10.0841    949
10.0941    883
10.1041    772
10.1141    692
10.1241    637
10.1341    582
10.1441    619
10.1541    532
10.1641    499
10.1741    489
10.1841    470
10.1941    460
10.2041    461
10.2141    455
10.2241    442
10.2341    428
10.2441    402
10.2541    410
10.2641    424
10.2741    394
10.2841    375
10.2941    384
10.3041    382
10.3141    380
10.3241    375
10.3341    370
10.3441    380
10.3541    337
10.3641    379
10.3741    360
10.3841    347
10.3941    337
10.4041    354
10.4141    361
10.4241    355
10.4341    341
10.4441    340
10.4541    339
10.4641    330
10.4741    323
10.4841    340
10.4941    345
10.5041    356
10.5141    344
10.5241    366
10.5341    361
10.5441    327
10.5541    354
10.5641    373
10.5741    381
10.5841    384
10.5941    392
10.6041    390
10.6141    351
10.6241    397
10.6341    410
10.6441    397
10.6541    418
10.6641    412
10.6741    403
10.6841    411
10.6941    413
10.7041    438
10.7141    443
10.7241    493
10.7341    492
10.7441    502
10.7541    504
10.7641    482
10.7741    500
10.7841    533
10.7941    556
10.8041    568
10.8141    566
10.8241    564
10.8341    556
10.8441    565
10.8541    604
10.8641    627
10.8741    613
10.8841    618
10.8941    611
10.9041    649
10.9141    629
10.9241    626
10.9341    651
10.9441    647
10.9541    616
10.9641    619
10.9741    613
10.9841    617
10.9941    614
11.0041    597
11.0141    596
11.0241    588
11.0341    557
11.0441    589
11.0541    556
11.0641    529
11.0741    545
11.0841    568
11.0941    545
11.1041    516
11.1141    564
11.1241    540
11.1341    549
11.1441    576
11.1541    603
11.1641    618
11.1741    692
11.1841    711
11.1941    735
11.2041    766
11.2141    793
11.2241    810
11.2341    825
11.2441    924
11.2541    910
11.2641    908
11.2741    953
11.2841    944
11.2941    927
11.3041    924
11.3141    906
11.3241    894
11.3341    831
11.3441    781
11.3541    799
11.3641    728
11.3741    688
11.3841    619
11.3941    571
11.4041    592
11.4141    553
11.4241    484
11.4341    468
11.4441    464
11.4541    429
11.4641    432
11.4741    434
11.4841    442
11.4941    437
11.5041    422
11.5141    440
11.5241    429
11.5341    422
11.5441    440
11.5541    432
11.5641    426
11.5741    444
11.5841    457
11.5941    448
11.6041    432
11.6141    441
11.6241    425
11.6341    423
11.6441    448
11.6541    449
11.6641    458
11.6741    464
11.6841    463
11.6941    409
11.7041    414
11.7141    420
11.7241    402
11.7341    377
11.7441    371
11.7541    364
11.7641    352
11.7741    350
11.7841    347
11.7941    335
11.8041    317
11.8141    328
11.8241    326
11.8341    316
11.8441    320
11.8541    326
11.8641    297
11.8741    333
11.8841    321
11.8941    312
11.9041    299
11.9141    320
11.9241    334
11.9341    318
11.9441    322
11.9541    314
11.9641    317
11.9741    315
11.9841    309
11.9941    313
12.0041    334
12.0141    328
12.0241    315
12.0341    298
12.0441    299
12.0541    317
12.0641    320
12.0741    328
12.0841    326
12.0941    306
12.1041    313
12.1141    312
12.1241    309
12.1341    298
12.1441    317
12.1541    319
12.1641    297
12.1741    302
12.1841    336
12.1941    324
12.2041    305
12.2141    301
12.2241    305
12.2341    294
12.2441    323
12.2541    322
12.2641    319
12.2741    301
12.2841    316
12.2941    305
12.3041    298
12.3141    333
12.3241    312
12.3341    310
12.3441    320
12.3541    307
12.3641    325
12.3741    315
12.3841    318
12.3941    323
12.4041    327
12.4141    319
12.4241    326
12.4341    316
12.4441    289
12.4541    296
12.4641    307
12.4741    330
12.4841    320
12.4941    324
12.5041    324
12.5141    311
12.5241    324
12.5341    317
12.5441    307
12.5541    339
12.5641    336
12.5741    326
12.5841    341
12.5941    362
12.6041    359
12.6141    336
12.6241    321
12.6341    331
12.6441    340
12.6541    332
12.6641    321
12.6741    339
12.6841    343
12.6941    344
12.7041    345
12.7141    349
12.7241    329
12.7341    314
12.7441    320
12.7541    322
12.7641    316
12.7741    317
12.7841    316
12.7941    324
12.8041    329
12.8141    323
12.8241    326
12.8341    349
12.8441    359
12.8541    334
12.8641    330
12.8741    328
12.8841    314
12.8941    332
12.9041    338
12.9141    362
12.9241    346
12.9341    343
12.9441    351
12.9541    355
12.9641    357
12.9741    342
12.9841    355
12.9941    347
13.0041    343
13.0141    348
13.0241    361
13.0341    357
13.0441    367
13.0541    368
13.0641    346
13.0741    364
13.0841    365
13.0941    353
13.1041    363
13.1141    358
13.1241    346
13.1341    363
13.1441    362
13.1541    361
13.1641    376
13.1741    388
13.1841    393
13.1941    377
13.2041    375
13.2141    384
13.2241    401
13.2341    439
13.2441    450
13.2541    415
13.2641    420
13.2741    428
13.2841    435
13.2941    433
13.3041    423
13.3141    433
13.3241    419
13.3341    417
13.3441    448
13.3541    464
13.3641    448
13.3741    414
13.3841    421
13.3941    437
13.4041    445
13.4141    455
13.4241    459
13.4341    451
13.4441    456
13.4541    457
13.4641    432
13.4741    412
13.4841    440
13.4941    475
13.5041    453
13.5141    418
13.5241    396
13.5341    402
13.5441    402
13.5541    403
13.5641    416
13.5741    404
13.5841    397
13.5941    402
13.6041    420
13.6141    434
13.6241    426
13.6341    433
13.6441    431
13.6541    427
13.6641    431
13.6741    408
13.6841    399
13.6941    414
13.7041    428
13.7141    429
13.7241    436
13.7341    421
13.7441    420
13.7541    427
13.7641    420
13.7741    426
13.7841    445
13.7941    454
13.8041    448
13.8141    442
13.8241    437
13.8341    452
13.8441    448
13.8541    467
13.8641    473
13.8741    469
13.8841    457
13.8941    443
13.9041    459
13.9141    443
13.9241    448
13.9341    452
13.9441    443
13.9541    447
13.9641    448
13.9741    476
13.9841    476
13.9941    464
14.0041    506
14.0141    526
14.0241    526
14.0341    521
14.0441    531
14.0541    554
14.0641    531
14.0741    526
14.0841    529
14.0941    530
14.1041    540
14.1141    540
14.1241    552
14.1341    558
14.1441    566
14.1541    536
14.1641    534
14.1741    559
14.1841    548
14.1941    550
14.2041    557
14.2141    551
14.2241    535
14.2341    527
14.2441    531
14.2541    535
14.2641    523
14.2741    523
14.2841    516
14.2941    497
14.3041    484
14.3141    469
14.3241    464
14.3341    478
14.3441    469
14.3541    485
14.3641    494
14.3741    496
14.3841    504
14.3941    480
14.4041    475
14.4141    492
14.4241    504
14.4341    492
14.4441    514
14.4541    518
14.4641    500
14.4741    527
14.4841    520
14.4941    498
14.5041    517
14.5141    511
14.5241    500
14.5341    526
14.5441    532
14.5541    517
14.5641    523
14.5741    542
14.5841    536
14.5941    517
14.6041    512
14.6141    522
14.6241    544
14.6341    538
14.6441    531
14.6541    558
14.6641    566
14.6741    540
14.6841    514
14.6941    523
14.7041    541
14.7141    539
14.7241    529
14.7341    517
14.7441    519
14.7541    516
14.7641    527
14.7741    540
14.7841    553
14.7941    546
14.8041    565
14.8141    552
14.8241    514
14.8341    548
14.8441    551
14.8541    543
14.8641    560
14.8741    538
14.8841    536
14.8941    531
14.9041    524
14.9141    544
14.9241    549
14.9341    538
14.9441    536
14.9541    558
14.9641    585
14.9741    585
14.9841    569
14.9941    563
15.0041    565
15.0141    563
15.0241    559
15.0341    576
15.0441    569
15.0541    549
15.0641    571
15.0741    579
15.0841    527
15.0941    519
15.1041    541
15.1141    580
15.1241    607
15.1341    581
15.1441    574
15.1541    562
15.1641    567
15.1741    577
15.1841    567
15.1941    583
15.2041    598
15.2141    585
15.2241    549
15.2341    550
15.2441    591
15.2541    589
15.2641    588
15.2741    579
15.2841    587
15.2941    570
15.3041    568
15.3141    623
15.3241    602
15.3341    558
15.3441    539
15.3541    560
15.3641    580
15.3741    604
15.3841    613
15.3941    576
15.4041    578
15.4141    585
15.4241    578
15.4341    581
15.4441    598
15.4541    606
15.4641    592
15.4741    610
15.4841    608
15.4941    605
15.5041    613
15.5141    625
15.5241    623
15.5341    619
15.5441    626
15.5541    616
15.5641    599
15.5741    612
15.5841    658
15.5941    681
15.6041    670
15.6141    641
15.6241    647
15.6341    655
15.6441    677
15.6541    705
15.6641    670
15.6741    685
15.6841    703
15.6941    699
15.7041    727
15.7141    728
15.7241    693
15.7341    726
15.7441    714
15.7541    705
15.7641    722
15.7741    733
15.7841    739
15.7941    717
15.8041    733
15.8141    746
15.8241    702
15.8341    717
15.8441    731
15.8541    736
15.8641    730
15.8741    695
15.8841    708
15.8941    714
15.9041    669
15.9141    629
15.9241    658
15.9341    690
15.9441    670
15.9541    649
15.9641    616
15.9741    662
15.9841    711
15.9941    684
16.0041    676
16.0141    689
16.0241    671
16.0341    662
16.0441    650
16.0541    642
16.0641    664
16.0741    687
16.0841    663
16.0941    688
16.1041    669
16.1141    661
16.1241    692
16.1341    682
16.1441    653
16.1541    681
16.1641    709
16.1741    688
16.1841    669
16.1941    665
16.2041    681
16.2141    680
16.2241    680
16.2341    697
16.2441    677
16.2541    687
16.2641    672
16.2741    692
16.2841    711
16.2941    675
16.3041    701
16.3141    753
16.3241    741
16.3341    684
16.3441    685
16.3541    684
16.3641    650
16.3741    676
16.3841    726
16.3941    691
16.4041    690
16.4141    698
16.4241    691
16.4341    697
16.4441    728
16.4541    721
16.4641    712
16.4741    731
16.4841    716
16.4941    741
16.5041    745
16.5141    703
16.5241    713
16.5341    719
16.5441    725
16.5541    715
16.5641    727
16.5741    727
16.5841    709
16.5941    695
16.6041    709
16.6141    713
16.6241    723
16.6341    711
16.6441    712
16.6541    722
16.6641    701
16.6741    715
16.6841    750
16.6941    778
16.7041    728
16.7141    685
16.7241    707
16.7341    759
16.7441    764
16.7541    751
16.7641    744
16.7741    738
16.7841    739
16.7941    762
16.8041    763
16.8141    755
16.8241    741
16.8341    789
16.8441    774
16.8541    768
16.8641    748
16.8741    752
16.8841    757
16.8941    754
16.9041    747
16.9141    794
16.9241    778
16.9341    779
16.9441    760
16.9541    767
16.9641    751
16.9741    763
16.9841    757
16.9941    785
17.0041    789
17.0141    753
17.0241    762
17.0341    776
17.0441    796
17.0541    772
17.0641    803
17.0741    775
17.0841    761
17.0941    779
17.1041    809
17.1141    801
17.1241    791
17.1341    762
17.1441    762
17.1541    796
17.1641    816
17.1741    802
17.1841    792
17.1941    780
17.2041    793
17.2141    771
17.2241    733
17.2341    745
17.2441    767
17.2541    793
17.2641    789
17.2741    774
17.2841    786
17.2941    828
17.3041    851
17.3141    816
17.3241    862
17.3341    800
17.3441    769
17.3541    837
17.3641    809
17.3741    837
17.3841    854
17.3941    850
17.4041    822
17.4141    840
17.4241    858
17.4341    812
17.4441    842
17.4541    871
17.4641    834
17.4741    828
17.4841    828
17.4941    801
17.5041    859
17.5141    831
17.5241    827
17.5341    809
17.5441    833
17.5541    847
17.5641    804
17.5741    851
17.5841    902
17.5941    907
17.6041    922
17.6141    857
17.6241    867
17.6341    886
17.6441    910
17.6541    925
17.6641    894
17.6741    874
17.6841    877
17.6941    891
17.7041    887
17.7141    916
17.7241    899
17.7341    873
17.7441    883
17.7541    845
17.7641    874
17.7741    862
17.7841    867
17.7941    882
17.8041    900
17.8141    911
17.8241    876
17.8341    853
17.8441    894
17.8541    883
17.8641    841
17.8741    864
17.8841    885
17.8941    915
17.9041    911
17.9141    919
17.9241    919
17.9341    885
17.9441    900
17.9541    901
17.9641    915
17.9741    904
17.9841    925
17.9941    900
18.0041    932
18.0141    924
18.0241    875
18.0341    884
18.0441    864
18.0541    885
18.0641    920
18.0741    873
18.0841    890
18.0941    964
18.1041    933
18.1141    903
18.1241    890
18.1341    922
18.1441    904
18.1541    891
18.1641    917
18.1741    904
18.1841    911
18.1941    935
18.2041    918
18.2141    951
18.2241    943
18.2341    920
18.2441    898
18.2541    894
18.2641    869
18.2741    912
18.2841    917
18.2941    935
18.3041    934
18.3141    953
18.3241    955
18.3341    959
18.3441    904
18.3541    958
18.3641    963
18.3741    965
18.3841    946
18.3941    945
18.4041    951
18.4141    974
18.4241    945
18.4341    938
18.4441    904
18.4541    929
18.4641    908
18.4741    952
18.4841    958
18.4941    974
18.5041    935
18.5141    939
18.5241    905
18.5341    883
18.5441    913
18.5541    942
18.5641    976
18.5741   1024
18.5841    966
18.5941    962
18.6041    938
18.6141    981
18.6241    974
18.6341    972
18.6441    992
18.6541    962
18.6641    991
18.6741    929
18.6841    966
18.6941    997
18.7041    984
18.7141    987
18.7241    985
18.7341    995
18.7441   1018
18.7541    996
18.7641   1033
18.7741    990
18.7841    997
18.7941   1021
18.8041    987
18.8141    986
18.8241   1044
18.8341   1015
18.8441   1004
18.8541    990
18.8641    992
18.8741    938
18.8841    961
18.8941    968
18.9041    979
18.9141    987
18.9241    970
18.9341    993
18.9441    964
18.9541    965
18.9641   1016
18.9741    997
18.9841    984
18.9941    975
19.0041   1013
19.0141   1010
19.0241   1015
19.0341   1000
19.0441    987
19.0541    990
19.0641   1029
19.0741    972
19.0841    990
19.0941    996
19.1041    964
19.1141   1033
19.1241   1017
19.1341   1039
19.1441   1027
19.1541   1012
19.1641    999
19.1741    995
19.1841   1060
19.1941   1073
19.2041    985
19.2141   1025
19.2241    984
19.2341   1051
19.2441   1043
19.2541   1074
19.2641   1012
19.2741   1025
19.2841   1037
19.2941    994
19.3041   1003
19.3141   1002
19.3241   1014
19.3341   1044
19.3441   1061
19.3541   1068
19.3641   1046
19.3741   1006
19.3841   1012
19.3941   1030
19.4041   1024
19.4141   1050
19.4241   1010
19.4341   1045
19.4441   1036
19.4541   1079
19.4641   1080
19.4741   1052
19.4841   1034
19.4941   1054
19.5041   1026
19.5141   1029
19.5241   1034
19.5341   1086
19.5441   1013
19.5541   1023
19.5641   1086
19.5741   1048
19.5841   1034
19.5941   1086
19.6041   1026
19.6141   1074
19.6241   1025
19.6341   1042
19.6441   1007
19.6541   1017
19.6641   1062
19.6741   1072
19.6841   1098
19.6941   1096
19.7041   1084
19.7141   1069
19.7241   1061
19.7341   1062
19.7441   1041
19.7541   1061
19.7641   1022
19.7741   1062
19.7841   1057
19.7941   1088
19.8041   1095
19.8141   1048
19.8241   1113
19.8341   1078
19.8441   1089
19.8541   1103
19.8641   1116
19.8741   1069
19.8841   1111
19.8941   1073
19.9041   1059
19.9141   1062
19.9241   1060
19.9341   1039
19.9441   1042
19.9541   1013
19.9641   1038
19.9741   1043
19.9841   1067
19.9941   1063
20.0041   1096
20.0141   1107
20.0241   1055
20.0341   1063
20.0441   1086
20.0541   1040
20.0641   1047
20.0741   1010
20.0841   1071
20.0941   1070
20.1041   1103
20.1141   1060
20.1241   1105
20.1341   1082
20.1441   1104
20.1541   1115
20.1641   1104
20.1741   1110
20.1841   1083
20.1941   1057
20.2041   1061
20.2141   1194
20.2241   1086
20.2341   1051
20.2441   1048
20.2541   1146
20.2641   1085
20.2741   1050
20.2841   1113
20.2941   1090
20.3041   1067
20.3141   1113
20.3241   1099
20.3341   1085
20.3441   1080
20.3541   1080
20.3641   1051
20.3741   1116
20.3841   1058
20.3941   1107
20.4041   1090
20.4141   1135
20.4241   1052
20.4341   1121
20.4441   1126
20.4541   1092
20.4641   1097
20.4741   1099
20.4841   1106
20.4941   1130
20.5041   1047
20.5141   1077
20.5241   1087
20.5341   1085
20.5441   1111
20.5541   1114
20.5641   1131
20.5741   1086
20.5841   1129
20.5941   1102
20.6041   1123
20.6141   1120
20.6241   1125
20.6341   1153
20.6441   1123
20.6541   1078
20.6641   1134
20.6741   1128
20.6841   1109
20.6941   1084
20.7041   1092
20.7141   1109
20.7241   1097
20.7341   1120
20.7441   1106
20.7541   1099
20.7641   1140
20.7741   1100
20.7841   1176
20.7941   1202
20.8041   1139
20.8141   1182
20.8241   1173
20.8341   1132
20.8441   1219
20.8541   1145
20.8641   1270
20.8741   1238
20.8841   1243
20.8941   1238
20.9041   1333
20.9141   1325
20.9241   1305
20.9341   1294
20.9441   1373
20.9541   1392
20.9641   1382
20.9741   1457
20.9841   1491
20.9941   1487
21.0041   1487
21.0141   1608
21.0241   1563
21.0341   1550
21.0441   1643
21.0541   1686
21.0641   1623
21.0741   1686
21.0841   1671
21.0941   1683
21.1041   1712
21.1141   1823
21.1241   1694
21.1341   1702
21.1441   1733
21.1541   1778
21.1641   1677
21.1741   1669
21.1841   1701
21.1941   1684
21.2041   1612
21.2141   1649
21.2241   1605
21.2341   1614
21.2441   1527
21.2541   1546
21.2641   1543
21.2741   1469
21.2841   1418
21.2941   1414
21.3041   1373
21.3141   1360
21.3241   1303
21.3341   1236
21.3441   1217
21.3541   1225
21.3641   1200
21.3741   1221
21.3841   1124
21.3941   1225
21.4041   1121
21.4141   1155
21.4241   1121
21.4341   1163
21.4441   1226
21.4541   1130
21.4641   1138
21.4741   1152
21.4841   1132
21.4941   1092
21.5041   1127
21.5141   1156
21.5241   1111
21.5341   1141
21.5441   1150
21.5541   1138
21.5641   1156
21.5741   1133
21.5841   1129
21.5941   1089
21.6041   1073
21.6141   1184
21.6241   1158
21.6341   1165
21.6441   1167
21.6541   1172
21.6641   1190
21.6741   1219
21.6841   1133
21.6941   1118
21.7041   1141
21.7141   1161
21.7241   1139
21.7341   1154
21.7441   1175
21.7541   1169
21.7641   1101
21.7741   1128
21.7841   1179
21.7941   1157
21.8041   1158
21.8141   1183
21.8241   1108
21.8341   1185
21.8441   1104
21.8541   1120
21.8641   1152
21.8741   1077
21.8841   1116
21.8941   1156
21.9041   1096
21.9141   1169
21.9241   1103
21.9341   1140
21.9441   1166
21.9541   1151
21.9641   1107
21.9741   1111
21.9841   1170
21.9941   1121
22.0041   1181
22.0141   1118
22.0241   1116
22.0341   1141
22.0441   1112
22.0541   1112
22.0641   1147
22.0741   1159
22.0841   1108
22.0941   1154
22.1041   1121
22.1141   1201
22.1241   1158
22.1341   1123
22.1441   1143
22.1541   1134
22.1641   1141
22.1741   1191
22.1841   1147
22.1941   1149
22.2041   1138
22.2141   1191
22.2241   1147
22.2341   1117
22.2441   1197
22.2541   1175
22.2641   1177
22.2741   1180
22.2841   1137
22.2941   1123
22.3041   1127
22.3141   1118
22.3241   1117
22.3341   1127
22.3441   1170
22.3541   1115
22.3641   1179
22.3741   1093
22.3841   1133
22.3941   1079
22.4041   1205
22.4141   1175
22.4241   1151
22.4341   1136
22.4441   1095
22.4541   1065
22.4641   1151
22.4741   1129
22.4841   1065
22.4941   1119
22.5041   1160
22.5141   1115
22.5241   1117
22.5341   1155
22.5441   1133
22.5541   1112
22.5641   1169
22.5741   1105
22.5841   1146
22.5941   1132
22.6041   1125
22.6141   1120
22.6241   1108
22.6341   1074
22.6441   1073
22.6541   1088
22.6641   1117
22.6741   1091
22.6841   1123
22.6941   1111
22.7041   1072
22.7141   1127
22.7241   1143
22.7341   1137
22.7441   1100
22.7541   1191
22.7641   1087
22.7741   1201
22.7841   1161
22.7941   1105
22.8041   1123
22.8141   1160
22.8241   1159
22.8341   1149
22.8441   1178
22.8541   1100
22.8641   1143
22.8741   1175
22.8841   1146
22.8941   1102
22.9041   1095
22.9141   1159
22.9241   1125
22.9341   1173
22.9441   1141
22.9541   1103
22.9641   1142
22.9741   1134
22.9841   1124
22.9941   1093
23.0041   1127
23.0141   1114
23.0241   1148
23.0341   1077
23.0441   1117
23.0541   1137
23.0641   1174
23.0741   1099
23.0841   1156
23.0941   1119
23.1041   1058
23.1141   1121
23.1241   1094
23.1341   1049
23.1441   1109
23.1541   1091
23.1641   1068
23.1741   1073
23.1841   1058
23.1941   1136
23.2041   1136
23.2141   1139
23.2241   1145
23.2341   1092
23.2441   1170
23.2541   1164
23.2641   1076
23.2741   1127
23.2841   1104
23.2941   1089
23.3041   1084
23.3141   1097
23.3241   1073
23.3341   1100
23.3441   1120
23.3541   1100
23.3641   1049
23.3741   1141
23.3841   1054
23.3941   1080
23.4041   1123
23.4141   1086
23.4241   1079
23.4341   1074
23.4441   1058
23.4541   1098
23.4641   1168
23.4741   1053
23.4841   1112
23.4941   1142
23.5041   1049
23.5141   1122
23.5241   1170
23.5341   1121
23.5441   1082
23.5541   1067
23.5641   1074
23.5741   1057
23.5841   1109
23.5941   1139
23.6041   1132
23.6141   1083
23.6241   1108
23.6341   1137
23.6441   1094
23.6541   1162
23.6641   1170
23.6741   1165
23.6841   1105
23.6941   1097
23.7041   1178
23.7141   1132
23.7241   1196
23.7341   1200
23.7441   1209
23.7541   1242
23.7641   1200
23.7741   1207
23.7841   1177
23.7941   1178
23.8041   1208
23.8141   1177
23.8241   1181
23.8341   1126
23.8441   1242
23.8541   1177
23.8641   1193
23.8741   1170
23.8841   1171
23.8941   1149
23.9041   1141
23.9141   1212
23.9241   1128
23.9341   1166
23.9441   1124
23.9541   1101
23.9641   1088
23.9741   1081
23.9841   1185
23.9941   1056
24.0041   1081
24.0141   1072
24.0241   1111
24.0341   1087
24.0441   1080
24.0541   1085
24.0641   1047
24.0741   1114
24.0841   1061
24.0941   1108
24.1041   1088
24.1141   1124
24.1241   1049
24.1341   1098
24.1441   1055
24.1541   1041
24.1641   1095
24.1741   1061
24.1841   1025
24.1941   1043
24.2041   1088
24.2141   1110
24.2241   1086
24.2341   1096
24.2441    985
24.2541   1041
24.2641   1022
24.2741   1067
24.2841   1081
24.2941   1107
24.3041   1094
24.3141   1126
24.3241   1078
24.3341   1109
24.3441   1054
24.3541   1078
24.3641   1113
24.3741   1039
24.3841   1069
24.3941   1060
24.4041   1114
24.4141   1099
24.4241   1056
24.4341   1056
24.4441   1009
24.4541   1034
24.4641   1049
24.4741   1064
24.4841   1083
24.4941   1055
24.5041   1086
24.5141   1080
24.5241   1015
24.5341   1004
24.5441   1081
24.5541   1046
24.5641   1062
24.5741   1081
24.5841   1039
24.5941   1039
24.6041   1019
24.6141    986
24.6241   1044
24.6341   1030
24.6441    963
24.6541   1036
24.6641    970
24.6741   1023
24.6841   1076
24.6941   1021
24.7041   1017
24.7141   1041
24.7241   1021
24.7341   1002
24.7441   1082
24.7541   1059
24.7641   1029
24.7741   1072
24.7841   1066
24.7941   1038
24.8041   1049
24.8141   1053
24.8241   1035
24.8341   1027
24.8441   1028
24.8541   1040
24.8641    997
24.8741   1059
24.8841    964
24.8941   1082
24.9041   1056
24.9141   1022
24.9241   1086
24.9341   1019
24.9441   1068
24.9541   1009
24.9641   1068
24.9741   1030
24.9841   1045
24.9941   1051
25.0041   1059
25.0141   1002
25.0241   1032
25.0341    991
25.0441    985
25.0541   1062
25.0641   1035
25.0741   1066
25.0841   1004
25.0941   1011
25.1041   1010
25.1141    991
25.1241   1066
25.1341   1045
25.1441   1009
25.1541   1052
25.1641   1028
25.1741   1046
25.1841    987
25.1941   1069
25.2041   1062
25.2141   1046
25.2241   1052
25.2341   1061
25.2441   1024
25.2541    985
25.2641   1050
25.2741   1068
25.2841   1059
25.2941   1057
25.3041   1010
25.3141    981
25.3241   1006
25.3341    955
25.3441   1024
25.3541   1046
25.3641   1030
25.3741   1037
25.3841    972
25.3941   1039
25.4041    953
25.4141    997
25.4241   1053
25.4341   1020
25.4441    981
25.4541   1033
25.4641    955
25.4741   1008
25.4841    941
25.4941    914
25.5041    956
25.5141    980
25.5241   1001
25.5341    932
25.5441    993
25.5541    961
25.5641    973
25.5741   1008
25.5841    953
25.5941    919
25.6041    972
25.6141   1004
25.6241    933
25.6341    975
25.6441    974
25.6541    927
25.6641    970
25.6741    954
25.6841    951
25.6941    943
25.7041    946
25.7141    982
25.7241    910
25.7341    889
25.7441    920
25.7541    975
25.7641    988
25.7741   1018
25.7841    945
25.7941    961
25.8041    971
25.8141    914
25.8241    927
25.8341    925
25.8441    951
25.8541    927
25.8641    977
25.8741    950
25.8841    953
25.8941    953
25.9041    911
25.9141    948
25.9241    936
25.9341    945
25.9441    916
25.9541    932
25.9641    941
25.9741    957
25.9841    960
25.9941    911
26.0041    994
26.0141    959
26.0241    924
26.0341    956
26.0441    942
26.0541    902
26.0641    903
26.0741    962
26.0841    936
26.0941    952
26.1041    931
26.1141    918
26.1241    961
26.1341    933
26.1441    956
26.1541    938
26.1641    932
26.1741    951
26.1841    927
26.1941    943
26.2041    920
26.2141    953
26.2241    947
26.2341    915
26.2441    913
26.2541    929
26.2641    939
26.2741    935
26.2841    916
26.2941    937
26.3041    919
26.3141    873
26.3241    846
26.3341    858
26.3441    958
26.3541    920
26.3641    916
26.3741    890
26.3841    904
26.3941    918
26.4041    889
26.4141    909
26.4241    920
26.4341    928
26.4441    922
26.4541    928
26.4641    849
26.4741    908
26.4841    908
26.4941    925
26.5041    884
26.5141    944
26.5241    892
26.5341    916
26.5441    910
26.5541    882
26.5641    865
26.5741    899
26.5841    890
26.5941    877
26.6041    831
26.6141    847
26.6241    913
26.6341    860
26.6441    873
26.6541    877
26.6641    867
26.6741    861
26.6841    881
26.6941    929
26.7041    917
26.7141    869
26.7241    887
26.7341    887
26.7441    874
26.7541    855
26.7641    932
26.7741    876
26.7841    836
26.7941    881
26.8041    890
26.8141    909
26.8241    870
26.8341    847
26.8441    853
26.8541    850
26.8641    826
26.8741    826
26.8841    851
26.8941    861
26.9041    858
26.9141    877
26.9241    874
26.9341    799
26.9441    890
26.9541    863
26.9641    859
26.9741    869
26.9841    876
26.9941    821
27.0041    849
27.0141    841
27.0241    881
27.0341    856
27.0441    901
27.0541    885
27.0641    884
27.0741    872
27.0841    866
27.0941    843
27.1041    883
27.1141    815
27.1241    823
27.1341    838
27.1441    852
27.1541    832
27.1641    887
27.1741    859
27.1841    811
27.1941    852
27.2041    832
27.2141    861
27.2241    851
27.2341    867
27.2441    845
27.2541    873
27.2641    839
27.2741    836
27.2841    809
27.2941    790
27.3041    867
27.3141    853
27.3241    870
27.3341    852
27.3441    848
27.3541    834
27.3641    781
27.3741    793
27.3841    849
27.3941    861
27.4041    821
27.4141    848
27.4241    857
27.4341    844
27.4441    860
27.4541    873
27.4641    809
27.4741    839
27.4841    823
27.4941    851
27.5041    822
27.5141    808
27.5241    817
27.5341    840
27.5441    830
27.5541    840
27.5641    835
27.5741    833
27.5841    805
27.5941    792
27.6041    800
27.6141    808
27.6241    808
27.6341    808
27.6441    850
27.6541    821
27.6641    797
27.6741    845
27.6841    784
27.6941    807
27.7041    845
27.7141    812
27.7241    845
27.7341    828
27.7441    784
27.7541    760
27.7641    776
27.7741    748
27.7841    750
27.7941    762
27.8041    782
27.8141    761
27.8241    770
27.8341    763
27.8441    809
27.8541    771
27.8641    791
27.8741    825
27.8841    769
27.8941    768
27.9041    802
27.9141    830
27.9241    758
27.9341    758
27.9441    744
27.9541    795
27.9641    777
27.9741    701
27.9841    776
27.9941    751
28.0041    742
28.0141    730
28.0241    781
28.0341    726
28.0441    778
28.0541    750
28.0641    829
28.0741    815
28.0841    743
28.0941    753
28.1041    804
28.1141    734
28.1241    770
28.1341    732
28.1441    749
28.1541    813
28.1641    788
28.1741    747
28.1841    771
28.1941    763
28.2041    758
28.2141    792
28.2241    722
28.2341    714
28.2441    731
28.2541    751
28.2641    710
28.2741    743
28.2841    761
28.2941    776
28.3041    765
28.3141    700
28.3241    757
28.3341    742
28.3441    758
28.3541    777
28.3641    719
28.3741    742
28.3841    784
28.3941    716
28.4041    766
28.4141    754
28.4241    725
28.4341    749
28.4441    743
28.4541    715
28.4641    752
28.4741    720
28.4841    803
28.4941    738
28.5041    753
28.5141    699
28.5241    714
28.5341    762
28.5441    747
28.5541    721
28.5641    757
28.5741    726
28.5841    705
28.5941    703
28.6041    701
28.6141    735
28.6241    677
28.6341    708
28.6441    651
28.6541    689
28.6641    745
28.6741    696
28.6841    705
28.6941    743
28.7041    722
28.7141    722
28.7241    708
28.7341    743
28.7441    725
28.7541    724
28.7641    722
28.7741    721
28.7841    703
28.7941    718
28.8041    675
28.8141    741
28.8241    686
28.8341    698
28.8441    728
28.8541    732
28.8641    751
28.8741    669
28.8841    678
28.8941    672
28.9041    702
28.9141    684
28.9241    653
28.9341    631
28.9441    647
28.9541    702
28.9641    673
28.9741    712
28.9841    663
28.9941    695
29.0041    710
29.0141    698
29.0241    738
29.0341    695
29.0441    688
29.0541    655
29.0641    704
29.0741    639
29.0841    647
29.0941    680
29.1041    709
29.1141    698
29.1241    693
29.1341    657
29.1441    676
29.1541    676
29.1641    660
29.1741    645
29.1841    623
29.1941    688
29.2041    636
29.2141    688
29.2241    683
29.2341    631
29.2441    680
29.2541    677
29.2641    656
29.2741    639
29.2841    662
29.2941    676
29.3041    674
29.3141    701
29.3241    655
29.3341    658
29.3441    686
29.3541    652
29.3641    667
29.3741    710
29.3841    677
29.3941    668
29.4041    679
29.4141    648
29.4241    597
29.4341    663
29.4441    635
29.4541    649
29.4641    670
29.4741    620
29.4841    649
29.4941    619
29.5041    683
29.5141    608
29.5241    608
29.5341    622
29.5441    655
29.5541    609
29.5641    606
29.5741    626
29.5841    625
29.5941    625
29.6041    651
29.6141    669
29.6241    643
29.6341    652
29.6441    631
29.6541    609
29.6641    569
29.6741    617
29.6841    670
29.6941    656
29.7041    654
29.7141    617
29.7241    624
29.7341    610
29.7441    618
29.7541    665
29.7641    629
29.7741    629
29.7841    622
29.7941    619
29.8041    605
29.8141    607
29.8241    604
29.8341    641
29.8441    595
29.8541    642
29.8641    620
29.8741    607
29.8841    608
29.8941    642
29.9041    607
29.9141    592
29.9241    615
29.9341    617
29.9441    598
29.9541    604
29.9641    573
29.9741    583
29.9841    576
29.9941    596
30.0041    553
30.0141    590
30.0241    590
30.0341    609
30.0441    571
30.0541    559
30.0641    577
30.0741    598
30.0841    538
30.0941    603
30.1041    540
30.1141    566
30.1241    582
30.1341    594
30.1441    631
30.1541    596
30.1641    600
30.1741    573
30.1841    609
30.1941    611
30.2041    591
30.2141    581
30.2241    607
30.2341    581
30.2441    623
30.2541    550
30.2641    571
30.2741    575
30.2841    576
30.2941    583
30.3041    549
30.3141    538
30.3241    605
30.3341    575
30.3441    608
30.3541    597
30.3641    569
30.3741    582
30.3841    587
30.3941    612
30.4041    582
30.4141    569
30.4241    584
30.4341    524
30.4441    535
30.4541    568
30.4641    590
30.4741    559
30.4841    537
30.4941    562
30.5041    528
30.5141    553
30.5241    513
30.5341    540
30.5441    591
30.5541    548
30.5641    556
30.5741    533
30.5841    595
30.5941    541
30.6041    551
30.6141    589
30.6241    530
30.6341    558
30.6441    520
30.6541    548
30.6641    545
30.6741    542
30.6841    549
30.6941    544
30.7041    539
30.7141    526
30.7241    537
30.7341    537
30.7441    581
30.7541    537
30.7641    509
30.7741    548
30.7841    549
30.7941    529
30.8041    507
30.8141    515
30.8241    576
30.8341    541
30.8441    515
30.8541    563
30.8641    501
30.8741    543
30.8841    540
30.8941    553
30.9041    522
30.9141    528
30.9241    564
30.9341    538
30.9441    551
30.9541    525
30.9641    516
30.9741    535
30.9841    544
30.9941    539
31.0041    540
31.0141    537
31.0241    533
31.0341    526
31.0441    513
31.0541    518
31.0641    511
31.0741    543
31.0841    499
31.0941    530
31.1041    509
31.1141    505
31.1241    492
31.1341    505
31.1441    511
31.1541    519
31.1641    500
31.1741    534
31.1841    527
31.1941    535
31.2041    519
31.2141    455
31.2241    500
31.2341    500
31.2441    483
31.2541    515
31.2641    469
31.2741    499
31.2841    518
31.2941    487
31.3041    495
31.3141    500
31.3241    523
31.3341    488
31.3441    486
31.3541    461
31.3641    510
31.3741    510
31.3841    456
31.3941    516
31.4041    497
31.4141    460
31.4241    490
31.4341    502
31.4441    462
31.4541    508
31.4641    471
31.4741    472
31.4841    508
31.4941    490
31.5041    463
31.5141    431
31.5241    481
31.5341    466
31.5441    481
31.5541    480
31.5641    486
31.5741    484
31.5841    490
31.5941    474
31.6041    469
31.6141    504
31.6241    485
31.6341    485
31.6441    470
31.6541    465
31.6641    467
31.6741    436
31.6841    452
31.6941    481
31.7041    485
31.7141    496
31.7241    424
31.7341    472
31.7441    444
31.7541    479
31.7641    466
31.7741    435
31.7841    401
31.7941    444
31.8041    481
31.8141    453
31.8241    493
31.8341    490
31.8441    474
31.8541    461
31.8641    467
31.8741    469
31.8841    442
31.8941    436
31.9041    421
31.9141    466
31.9241    473
31.9341    437
31.9441    436
31.9541    483
31.9641    460
31.9741    449
31.9841    459
31.9941    455
32.0041    435
32.0141    436
32.0241    436
32.0341    428
32.0441    410
32.0541    415
32.0641    459
32.0741    463
32.0841    445
32.0941    466
32.1041    466
32.1141    424
32.1241    468
32.1341    425
32.1441    447
32.1541    433
32.1641    434
32.1741    468
32.1841    448
32.1941    437
32.2041    434
32.2141    471
32.2241    448
32.2341    444
32.2441    424
32.2541    423
32.2641    445
32.2741    415
32.2841    473
32.2941    438
32.3041    458
32.3141    451
32.3241    421
32.3341    433
32.3441    424
32.3541    355
32.3641    405
32.3741    436
32.3841    420
32.3941    414
32.4041    423
32.4141    407
32.4241    391
32.4341    399
32.4441    426
32.4541    408
32.4641    402
32.4741    399
32.4841    379
32.4941    410
32.5041    393
32.5141    380
32.5241    439
32.5341    407
32.5441    399
32.5541    390
32.5641    398
32.5741    402
32.5841    410
32.5941    432
32.6041    396
32.6141    381
32.6241    367
32.6341    399
32.6441    387
32.6541    366
32.6641    404
32.6741    370
32.6841    373
32.6941    355
32.7041    417
32.7141    371
32.7241    436
32.7341    415
32.7441    398
32.7541    418
32.7641    379
32.7741    366
32.7841    388
32.7941    387
32.8041    366
32.8141    379
32.8241    382
32.8341    398
32.8441    397
32.8541    371
32.8641    400
32.8741    385
32.8841    371
32.8941    380
32.9041    396
32.9141    361
32.9241    403
32.9341    388
32.9441    393
32.9541    400
32.9641    395
32.9741    369
32.9841    401
32.9941    408
33.0041    385
33.0141    375
33.0241    366
33.0341    360
33.0441    408
33.0541    367
33.0641    349
33.0741    398
33.0841    389
33.0941    389
33.1041    379
33.1141    369
33.1241    358
33.1341    354
33.1441    368
33.1541    353
33.1641    380
33.1741    358
33.1841    344
33.1941    370
33.2041    357
33.2141    345
33.2241    358
33.2341    335
33.2441    351
33.2541    361
33.2641    371
33.2741    375
33.2841    398
33.2941    369
33.3041    376
33.3141    356
33.3241    337
33.3341    358
33.3441    348
33.3541    361
33.3641    363
33.3741    380
33.3841    368
33.3941    374
33.4041    358
33.4141    378
33.4241    315
33.4341    347
33.4441    331
33.4541    338
33.4641    344
33.4741    366
33.4841    334
33.4941    326
33.5041    311
33.5141    340
33.5241    369
33.5341    382
33.5441    395
33.5541    343
33.5641    349
33.5741    332
33.5841    310
33.5941    318
33.6041    324
33.6141    309
33.6241    282
33.6341    299
33.6441    358
33.6541    372
33.6641    356
33.6741    321
33.6841    317
33.6941    337
33.7041    350
33.7141    323
33.7241    346
33.7341    354
33.7441    347
33.7541    346
33.7641    311
33.7741    335
33.7841    332
33.7941    344
33.8041    331
33.8141    325
33.8241    320
33.8341    354
33.8441    288
33.8541    324
33.8641    308
33.8741    319
33.8841    337
33.8941    349
33.9041    316
33.9141    312
33.9241    316
33.9341    363
33.9441    304
33.9541    279
33.9641    331
33.9741    301
33.9841    318
33.9941    315
34.0041    346
34.0141    290
34.0241    316
34.0341    332
34.0441    328
34.0541    280
34.0641    310
34.0741    318
34.0841    291
34.0941    315
34.1041    312
34.1141    327
34.1241    306
34.1341    302
34.1441    294
34.1541    305
34.1641    305
34.1741    303
34.1841    317
34.1941    281
34.2041    300
34.2141    302
34.2241    329
34.2341    320
34.2441    300
34.2541    291
34.2641    308
34.2741    332
34.2841    325
34.2941    312
34.3041    275
34.3141    296
34.3241    297
34.3341    304
34.3441    296
34.3541    298
34.3641    306
34.3741    281
34.3841    289
34.3941    305
34.4041    286
34.4141    302
34.4241    262
34.4341    310
34.4441    297
34.4541    258
34.4641    304
34.4741    295
34.4841    277
34.4941    287
34.5041    289
34.5141    284
34.5241    298
34.5341    280
34.5441    287
34.5541    281
34.5641    300
34.5741    280
34.5841    285
34.5941    289
34.6041    274
34.6141    271
34.6241    286
34.6341    278
34.6441    256
34.6541    279
34.6641    282
34.6741    294
34.6841    243
34.6941    264
34.7041    285
34.7141    266
34.7241    292
34.7341    273
34.7441    246
34.7541    293
34.7641    258
34.7741    262
34.7841    265
34.7941    272
34.8041    248
34.8141    275
34.8241    262
34.8341    283
34.8441    247
34.8541    272
34.8641    263
34.8741    293
34.8841    303
34.8941    276
34.9041    245
34.9141    258
34.9241    256
34.9341    242
34.9441    266
34.9541    248
34.9641    240
34.9741    259
34.9841    240
34.9941    258
35.0041    272
35.0141    262
35.0241    251
35.0341    239
35.0441    270
35.0541    250
35.0641    242
35.0741    229
35.0841    256
35.0941    285
35.1041    255
35.1141    247
35.1241    241
35.1341    234
35.1441    234
35.1541    240
35.1641    265
35.1741    237
35.1841    271
35.1941    257
35.2041    238
35.2141    236
35.2241    265
35.2341    215
35.2441    244
35.2541    228
35.2641    232
35.2741    254
35.2841    265
35.2941    243
35.3041    220
35.3141    250
35.3241    244
35.3341    224
35.3441    250
35.3541    265
35.3641    246
35.3741    246
35.3841    223
35.3941    226
35.4041    238
35.4141    265
35.4241    248
35.4341    217
35.4441    224
35.4541    236
35.4641    251
35.4741    241
35.4841    276
35.4941    212
35.5041    212
35.5141    229
35.5241    225
35.5341    205
35.5441    224
35.5541    212
35.5641    238
35.5741    218
35.5841    245
35.5941    257
35.6041    221
35.6141    229
35.6241    247
35.6341    236
35.6441    221
35.6541    223
35.6641    226
35.6741    222
35.6841    220
35.6941    219
35.7041    237
35.7141    244
35.7241    234
35.7341    238
35.7441    219
35.7541    229
35.7641    249
35.7741    233
35.7841    217
35.7941    233
35.8041    231
35.8141    226
35.8241    231
35.8341    204
35.8441    212
35.8541    236
35.8641    208
35.8741    216
35.8841    239
35.8941    201
35.9041    216
35.9141    221
35.9241    230
35.9341    199
35.9441    221
35.9541    218
35.9641    206
35.9741    200
35.9841    199
35.9941    210
36.0041    186
36.0141    234
36.0241    199
36.0341    205
36.0441    204
36.0541    198
36.0641    208
36.0741    214
36.0841    201
36.0941    218
36.1041    209
36.1141    193
36.1241    195
36.1341    223
36.1441    224
36.1541    174
36.1641    198
36.1741    200
36.1841    210
36.1941    207
36.2041    205
36.2141    198
36.2241    200
36.2341    197
36.2441    201
36.2541    176
36.2641    199
36.2741    191
36.2841    192
36.2941    187
36.3041    194
36.3141    178
36.3241    212
36.3341    216
36.3441    184
36.3541    194
36.3641    204
36.3741    182
36.3841    190
36.3941    205
36.4041    208
36.4141    180
36.4241    199
36.4341    194
36.4441    197
36.4541    179
36.4641    180
36.4741    199
36.4841    185
36.4941    194
36.5041    197
36.5141    184
36.5241    192
36.5341    191
36.5441    187
36.5541    194
36.5641    194
36.5741    195
36.5841    182
36.5941    186
36.6041    187
36.6141    174
36.6241    218
36.6341    189
36.6441    197
36.6541    186
36.6641    172
36.6741    195
36.6841    176
36.6941    177
36.7041    182
36.7141    168
36.7241    176
36.7341    166
36.7441    188
36.7541    181
36.7641    177
36.7741    184
36.7841    165
36.7941    168
36.8041    162
36.8141    154
36.8241    180
36.8341    186
36.8441    176
36.8541    175
36.8641    174
36.8741    177
36.8841    187
36.8941    194
36.9041    182
36.9141    183
36.9241    182
36.9341    171
36.9441    154
36.9541    158
36.9641    171
36.9741    168
36.9841    186
36.9941    183
37.0041    169
37.0141    179
37.0241    154
37.0341    189
37.0441    153
37.0541    150
37.0641    163
37.0741    162
37.0841    168
37.0941    166
37.1041    144
37.1141    136
37.1241    134
37.1341    183
37.1441    182
37.1541    164
37.1641    160
37.1741    168
37.1841    165
37.1941    169
37.2041    171
37.2141    143
37.2241    162
37.2341    152
37.2441    146
37.2541    162
37.2641    159
37.2741    158
37.2841    152
37.2941    165
37.3041    157
37.3141    172
37.3241    154
37.3341    162
37.3441    155
37.3541    148
37.3641    152
37.3741    158
37.3841    154
37.3941    132
37.4041    148
37.4141    165
37.4241    160
37.4341    168
37.4441    160
37.4541    137
37.4641    147
37.4741    134
37.4841    148
37.4941    139
37.5041    130
37.5141    128
37.5241    155
37.5341    158
37.5441    136
37.5541    135
37.5641    128
37.5741    158
37.5841    138
37.5941    126
37.6041    143
37.6141    138
37.6241    130
37.6341    139
37.6441    139
37.6541    148
37.6641    139
37.6741    157
37.6841    139
37.6941    121
37.7041    124
37.7141    137
37.7241    135
37.7341    156
37.7441    123
37.7541    165
37.7641    154
37.7741    141
37.7841    144
37.7941    147
37.8041    141
37.8141    130
37.8241    136
37.8341    147
37.8441    146
37.8541    143
37.8641    134
37.8741    140
37.8841    123
37.8941    121
37.9041    137
37.9141    148
37.9241    140
37.9341    132
37.9441    131
37.9541    128
37.9641    130
37.9741    106
37.9841    130
37.9941    127
38.0041    136
38.0141    129
38.0241    126
38.0341    145
38.0441    122
38.0541    126
38.0641    118
38.0741    122
38.0841    145
38.0941    136
38.1041    129
38.1141    120
38.1241    131
38.1341    126
38.1441    128
38.1541    147
38.1641    117
38.1741    117
38.1841    127
38.1941    115
38.2041    134
38.2141    133
38.2241    126
38.2341    124
38.2441    120
38.2541    134
38.2641    121
38.2741    125
38.2841    104
38.2941    136
38.3041    132
38.3141    140
38.3241    110
38.3341    121
38.3441    121
38.3541    130
38.3641    131
38.3741    101
38.3841    115
38.3941    133
38.4041    116
38.4141    119
38.4241     95
38.4341    104
38.4441    114
38.4541    125
38.4641    120
38.4741    117
38.4841    128
38.4941    117
38.5041    130
38.5141    123
38.5241    116
38.5341    112
38.5441     86
38.5541    119
38.5641    115
38.5741    117
38.5841    118
38.5941     92
38.6041     85
38.6141    120
38.6241    108
38.6341    105
38.6441    103
38.6541     94
38.6641    108
38.6741    106
38.6841    105
38.6941    104
38.7041    117
38.7141    106
38.7241     89
38.7341    121
38.7441     93
38.7541    103
38.7641     93
38.7741    107
38.7841    105
38.7941    118
38.8041    110
38.8141     98
38.8241    108
38.8341    114
38.8441    106
38.8541    100
38.8641     97
38.8741    105
38.8841     97
38.8941    103
38.9041     94
38.9141     98
38.9241     94
38.9341    106
38.9441     99
38.9541     83
38.9641    104
38.9741     86
38.9841     99
38.9941     91
39.0041     89
39.0141     91
39.0241    101
39.0341     92
39.0441    108
39.0541     78
39.0641     82
39.0741     88
39.0841     94
39.0941     99
39.1041    106
39.1141    101
39.1241     92
39.1341     74
39.1441     97
39.1541     92
39.1641     98
39.1741     78
39.1841     96
39.1941     97
39.2041     71
39.2141     75
39.2241     99
39.2341    103
39.2441     87
39.2541     87
39.2641     93
39.2741     94
39.2841     81
39.2941     95
39.3041    108
39.3141     97
39.3241    105
39.3341     91
39.3441     84
39.3541     84
39.3641     81
39.3741     79
39.3841     96
39.3941     70
39.4041     92
39.4141     89
39.4241    100
39.4341     87
39.4441     87
39.4541     76
39.4641     85
39.4741     78
39.4841     91
39.4941     90
39.5041     92
39.5141     68
39.5241     78
39.5341     78
39.5441     86
39.5541     73
39.5641     80
39.5741     75
39.5841     89
39.5941     79
39.6041     79
39.6141     75
39.6241     74
39.6341     83
39.6441     89
39.6541     81
39.6641     85
39.6741     72
39.6841     73
39.6941     79
39.7041     83
39.7141     62
39.7241     81
39.7341     59
39.7441     88
39.7541     83
39.7641     76
39.7741     59
39.7841     72
39.7941     64
39.8041     78
39.8141     81
39.8241     73
39.8341     79
39.8441     83
39.8541     73
39.8641     67
39.8741     75
39.8841     80
39.8941     70
39.9041     74
39.9141     80
39.9241     75
39.9341     80
39.9441     83
39.9541     62
39.9641     57
39.9741     64
39.9841     72
39.9941     66
