Bruker Nano GmbH Berlin, Germany
Esprit 1.9

Date: 4/1/2021 4:20:08 PM
Real time: 31783
Life time: 29991
Pulse density: 80845


Detector type: XFlash 430
Window type: Custom type
Detector thickness: 0.45
Si dead layer:0.029

Calibration, lin.: 10
Calibration, abs.: -955.9
Mn FWHM: 137.05
Fano factor: 0.121
Channels: 4096

Energy Counts
-0.9559     0
-0.9459     0
-0.9359     0
-0.9259     0
-0.9159     0
-0.9059     0
-0.8959     0
-0.8859     0
-0.8759     0
-0.8659     0
-0.8559     0
-0.8459     0
-0.8359     0
-0.8259     0
-0.8159     0
-0.8059     0
-0.7959     0
-0.7859     0
-0.7759     0
-0.7659     0
-0.7559     0
-0.7459     0
-0.7359     0
-0.7259     0
-0.7159     0
-0.7059     0
-0.6959     0
-0.6859     0
-0.6759     0
-0.6659     0
-0.6559     0
-0.6459     0
-0.6359     0
-0.6259     0
-0.6159     0
-0.6059     0
-0.5959     0
-0.5859     0
-0.5759     0
-0.5659     0
-0.5559     0
-0.5459     0
-0.5359     0
-0.5259     0
-0.5159     0
-0.5059     0
-0.4959     0
-0.4859     0
-0.4759     0
-0.4659     0
-0.4559     0
-0.4459     0
-0.4359     0
-0.4259     0
-0.4159     0
-0.4059     0
-0.3959     0
-0.3859     0
-0.3759     0
-0.3659     0
-0.3559     0
-0.3459     0
-0.3359     0
-0.3259     0
-0.3159     0
-0.3059     0
-0.2959     0
-0.2859     0
-0.2759     0
-0.2659     0
-0.2559     0
-0.2459     0
-0.2359     0
-0.2259     0
-0.2159     0
-0.2059     0
-0.1959     0
-0.1859     0
-0.1759     0
-0.1659     0
-0.1559     0
-0.1459     0
-0.1359     0
-0.1259     2
-0.1159     5
-0.1059    20
-0.0959    91
-0.0859   338
-0.0759  1151
-0.0659  3370
-0.0559  8652
-0.0459 19151
-0.0359 35674
-0.0259 57247
-0.0159 78624
-0.0059 91794
 0.0041 92322
 0.0141 79547
 0.0241 58739
 0.0341 37244
 0.0441 20131
 0.0541  9261
 0.0641  3697
 0.0741  1290
 0.0841   366
 0.0941   106
 0.1041    34
 0.1141    14
 0.1241    13
 0.1341    15
 0.1441    11
 0.1541    12
 0.1641     5
 0.1741    31
 0.1841   267
 0.1941   544
 0.2041   493
 0.2141   473
 0.2241   493
 0.2341   456
 0.2441   453
 0.2541   468
 0.2641   462
 0.2741   463
 0.2841   478
 0.2941   460
 0.3041   479
 0.3141   468
 0.3241   478
 0.3341   495
 0.3441   458
 0.3541   452
 0.3641   427
 0.3741   449
 0.3841   437
 0.3941   432
 0.4041   436
 0.4141   433
 0.4241   414
 0.4341   416
 0.4441   451
 0.4541   433
 0.4641   405
 0.4741   415
 0.4841   415
 0.4941   403
 0.5041   412
 0.5141   405
 0.5241   378
 0.5341   407
 0.5441   402
 0.5541   399
 0.5641   402
 0.5741   396
 0.5841   414
 0.5941   383
 0.6041   362
 0.6141   371
 0.6241   359
 0.6341   370
 0.6441   387
 0.6541   359
 0.6641   340
 0.6741   358
 0.6841   369
 0.6941   353
 0.7041   361
 0.7141   349
 0.7241   347
 0.7341   374
 0.7441   361
 0.7541   338
 0.7641   363
 0.7741   376
 0.7841   363
 0.7941   346
 0.8041   337
 0.8141   338
 0.8241   339
 0.8341   336
 0.8441   339
 0.8541   360
 0.8641   351
 0.8741   338
 0.8841   345
 0.8941   329
 0.9041   327
 0.9141   326
 0.9241   333
 0.9341   303
 0.9441   330
 0.9541   306
 0.9641   308
 0.9741   322
 0.9841   307
 0.9941   323
 1.0041   302
 1.0141   311
 1.0241   327
 1.0341   300
 1.0441   320
 1.0541   332
 1.0641   321
 1.0741   326
 1.0841   289
 1.0941   308
 1.1041   315
 1.1141   298
 1.1241   302
 1.1341   320
 1.1441   292
 1.1541   323
 1.1641   279
 1.1741   321
 1.1841   314
 1.1941   302
 1.2041   308
 1.2141   285
 1.2241   313
 1.2341   317
 1.2441   302
 1.2541   293
 1.2641   286
 1.2741   316
 1.2841   285
 1.2941   267
 1.3041   302
 1.3141   309
 1.3241   281
 1.3341   271
 1.3441   259
 1.3541   281
 1.3641   295
 1.3741   279
 1.3841   278
 1.3941   260
 1.4041   287
 1.4141   283
 1.4241   296
 1.4341   289
 1.4441   302
 1.4541   294
 1.4641   307
 1.4741   288
 1.4841   276
 1.4941   263
 1.5041   276
 1.5141   314
 1.5241   306
 1.5341   294
 1.5441   282
 1.5541   262
 1.5641   255
 1.5741   269
 1.5841   271
 1.5941   249
 1.6041   259
 1.6141   283
 1.6241   267
 1.6341   305
 1.6441   315
 1.6541   334
 1.6641   388
 1.6741   482
 1.6841   607
 1.6941   700
 1.7041   861
 1.7141  1018
 1.7241  1133
 1.7341  1181
 1.7441  1158
 1.7541  1027
 1.7641   966
 1.7741   858
 1.7841   733
 1.7941   593
 1.8041   529
 1.8141   413
 1.8241   388
 1.8341   341
 1.8441   332
 1.8541   327
 1.8641   317
 1.8741   296
 1.8841   273
 1.8941   280
 1.9041   271
 1.9141   280
 1.9241   283
 1.9341   255
 1.9441   279
 1.9541   303
 1.9641   315
 1.9741   344
 1.9841   332
 1.9941   332
 2.0041   332
 2.0141   378
 2.0241   366
 2.0341   332
 2.0441   363
 2.0541   305
 2.0641   293
 2.0741   266
 2.0841   260
 2.0941   270
 2.1041   230
 2.1141   224
 2.1241   264
 2.1341   256
 2.1441   222
 2.1541   272
 2.1641   261
 2.1741   231
 2.1841   230
 2.1941   228
 2.2041   218
 2.2141   221
 2.2241   237
 2.2341   265
 2.2441   232
 2.2541   242
 2.2641   257
 2.2741   233
 2.2841   272
 2.2941   248
 2.3041   254
 2.3141   226
 2.3241   213
 2.3341   225
 2.3441   218
 2.3541   246
 2.3641   224
 2.3741   230
 2.3841   210
 2.3941   225
 2.4041   220
 2.4141   211
 2.4241   192
 2.4341   238
 2.4441   217
 2.4541   220
 2.4641   209
 2.4741   215
 2.4841   196
 2.4941   225
 2.5041   216
 2.5141   220
 2.5241   223
 2.5341   238
 2.5441   182
 2.5541   206
 2.5641   215
 2.5741   215
 2.5841   209
 2.5941   199
 2.6041   233
 2.6141   191
 2.6241   227
 2.6341   245
 2.6441   203
 2.6541   205
 2.6641   191
 2.6741   218
 2.6841   189
 2.6941   188
 2.7041   185
 2.7141   200
 2.7241   196
 2.7341   207
 2.7441   213
 2.7541   217
 2.7641   185
 2.7741   195
 2.7841   213
 2.7941   230
 2.8041   194
 2.8141   219
 2.8241   193
 2.8341   228
 2.8441   198
 2.8541   229
 2.8641   237
 2.8741   194
 2.8841   185
 2.8941   190
 2.9041   198
 2.9141   192
 2.9241   206
 2.9341   197
 2.9441   182
 2.9541   179
 2.9641   171
 2.9741   168
 2.9841   193
 2.9941   179
 3.0041   205
 3.0141   172
 3.0241   194
 3.0341   170
 3.0441   164
 3.0541   172
 3.0641   175
 3.0741   189
 3.0841   174
 3.0941   170
 3.1041   168
 3.1141   166
 3.1241   170
 3.1341   147
 3.1441   176
 3.1541   162
 3.1641   190
 3.1741   164
 3.1841   166
 3.1941   152
 3.2041   161
 3.2141   183
 3.2241   183
 3.2341   206
 3.2441   228
 3.2541   232
 3.2641   262
 3.2741   268
 3.2841   306
 3.2941   321
 3.3041   359
 3.3141   382
 3.3241   374
 3.3341   337
 3.3441   283
 3.3541   287
 3.3641   264
 3.3741   214
 3.3841   201
 3.3941   169
 3.4041   203
 3.4141   157
 3.4241   152
 3.4341   152
 3.4441   160
 3.4541   165
 3.4641   151
 3.4741   159
 3.4841   153
 3.4941   150
 3.5041   166
 3.5141   172
 3.5241   154
 3.5341   198
 3.5441   192
 3.5541   200
 3.5641   228
 3.5741   278
 3.5841   336
 3.5941   434
 3.6041   497
 3.6141   660
 3.6241   798
 3.6341   950
 3.6441  1119
 3.6541  1351
 3.6641  1549
 3.6741  1572
 3.6841  1632
 3.6941  1711
 3.7041  1622
 3.7141  1573
 3.7241  1318
 3.7341  1127
 3.7441   964
 3.7541   753
 3.7641   619
 3.7741   476
 3.7841   373
 3.7941   269
 3.8041   209
 3.8141   210
 3.8241   164
 3.8341   153
 3.8441   154
 3.8541   124
 3.8641   139
 3.8741   149
 3.8841   146
 3.8941   139
 3.9041   138
 3.9141   158
 3.9241   178
 3.9341   219
 3.9441   199
 3.9541   216
 3.9641   250
 3.9741   285
 3.9841   290
 3.9941   293
 4.0041   320
 4.0141   337
 4.0241   347
 4.0341   308
 4.0441   285
 4.0541   250
 4.0641   210
 4.0741   214
 4.0841   176
 4.0941   183
 4.1041   173
 4.1141   148
 4.1241   151
 4.1341   109
 4.1441   121
 4.1541   119
 4.1641   132
 4.1741   120
 4.1841   117
 4.1941   102
 4.2041   115
 4.2141   105
 4.2241   100
 4.2341   128
 4.2441   115
 4.2541   132
 4.2641   125
 4.2741   103
 4.2841   103
 4.2941   124
 4.3041   152
 4.3141   107
 4.3241   123
 4.3341   118
 4.3441   120
 4.3541   115
 4.3641   131
 4.3741   139
 4.3841   130
 4.3941   149
 4.4041   161
 4.4141   172
 4.4241   206
 4.4341   216
 4.4441   220
 4.4541   276
 4.4641   310
 4.4741   343
 4.4841   361
 4.4941   368
 4.5041   391
 4.5141   390
 4.5241   379
 4.5341   378
 4.5441   321
 4.5541   274
 4.5641   268
 4.5741   262
 4.5841   201
 4.5941   204
 4.6041   157
 4.6141   131
 4.6241   152
 4.6341   136
 4.6441   120
 4.6541   140
 4.6641   130
 4.6741   136
 4.6841   127
 4.6941   150
 4.7041   133
 4.7141   120
 4.7241   115
 4.7341   123
 4.7441   134
 4.7541   123
 4.7641   130
 4.7741   139
 4.7841   129
 4.7941   150
 4.8041   124
 4.8141   153
 4.8241   147
 4.8341   153
 4.8441   149
 4.8541   144
 4.8641   160
 4.8741   180
 4.8841   183
 4.8941   167
 4.9041   187
 4.9141   190
 4.9241   163
 4.9341   172
 4.9441   183
 4.9541   128
 4.9641   163
 4.9741   157
 4.9841   152
 4.9941   168
 5.0041   150
 5.0141   142
 5.0241   138
 5.0341   131
 5.0441   140
 5.0541   146
 5.0641   141
 5.0741   148
 5.0841   126
 5.0941   129
 5.1041   151
 5.1141   147
 5.1241   146
 5.1341   131
 5.1441   153
 5.1541   156
 5.1641   128
 5.1741   118
 5.1841   130
 5.1941   114
 5.2041   143
 5.2141   160
 5.2241   132
 5.2341   143
 5.2441   137
 5.2541   132
 5.2641   135
 5.2741   138
 5.2841   151
 5.2941   181
 5.3041   159
 5.3141   157
 5.3241   205
 5.3341   191
 5.3441   224
 5.3541   226
 5.3641   246
 5.3741   261
 5.3841   293
 5.3941   291
 5.4041   290
 5.4141   283
 5.4241   273
 5.4341   280
 5.4441   300
 5.4541   272
 5.4641   242
 5.4741   218
 5.4841   204
 5.4941   213
 5.5041   161
 5.5141   190
 5.5241   175
 5.5341   144
 5.5441   156
 5.5541   135
 5.5641   140
 5.5741   151
 5.5841   137
 5.5941   140
 5.6041   135
 5.6141   153
 5.6241   157
 5.6341   153
 5.6441   146
 5.6541   156
 5.6641   129
 5.6741   136
 5.6841   164
 5.6941   152
 5.7041   145
 5.7141   167
 5.7241   138
 5.7341   161
 5.7441   176
 5.7541   157
 5.7641   169
 5.7741   164
 5.7841   147
 5.7941   170
 5.8041   181
 5.8141   197
 5.8241   209
 5.8341   206
 5.8441   239
 5.8541   247
 5.8641   231
 5.8741   244
 5.8841   263
 5.8941   251
 5.9041   279
 5.9141   242
 5.9241   266
 5.9341   251
 5.9441   269
 5.9541   271
 5.9641   225
 5.9741   227
 5.9841   201
 5.9941   193
 6.0041   215
 6.0141   210
 6.0241   212
 6.0341   201
 6.0441   203
 6.0541   190
 6.0641   200
 6.0741   192
 6.0841   158
 6.0941   180
 6.1041   170
 6.1141   165
 6.1241   172
 6.1341   187
 6.1441   187
 6.1541   184
 6.1641   177
 6.1741   192
 6.1841   211
 6.1941   220
 6.2041   250
 6.2141   252
 6.2241   321
 6.2341   339
 6.2441   459
 6.2541   621
 6.2641   790
 6.2741   971
 6.2841  1329
 6.2941  1720
 6.3041  2197
 6.3141  2785
 6.3241  3183
 6.3341  3933
 6.3441  4562
 6.3541  5224
 6.3641  5789
 6.3741  6154
 6.3841  6537
 6.3941  6721
 6.4041  6598
 6.4141  6512
 6.4241  5947
 6.4341  5747
 6.4441  5003
 6.4541  4436
 6.4641  3590
 6.4741  3062
 6.4841  2527
 6.4941  2023
 6.5041  1565
 6.5141  1163
 6.5241   947
 6.5341   686
 6.5441   539
 6.5541   379
 6.5641   311
 6.5741   307
 6.5841   265
 6.5941   270
 6.6041   235
 6.6141   206
 6.6241   237
 6.6341   254
 6.6441   217
 6.6541   207
 6.6641   166
 6.6741   222
 6.6841   207
 6.6941   231
 6.7041   216
 6.7141   207
 6.7241   215
 6.7341   211
 6.7441   212
 6.7541   207
 6.7641   210
 6.7741   210
 6.7841   179
 6.7941   235
 6.8041   226
 6.8141   233
 6.8241   226
 6.8341   222
 6.8441   233
 6.8541   270
 6.8641   268
 6.8741   244
 6.8841   266
 6.8941   279
 6.9041   307
 6.9141   326
 6.9241   368
 6.9341   464
 6.9441   472
 6.9541   507
 6.9641   615
 6.9741   700
 6.9841   846
 6.9941   916
 7.0041  1052
 7.0141  1098
 7.0241  1125
 7.0341  1244
 7.0441  1262
 7.0541  1306
 7.0641  1295
 7.0741  1203
 7.0841  1163
 7.0941  1120
 7.1041  1060
 7.1141   949
 7.1241   814
 7.1341   716
 7.1441   591
 7.1541   566
 7.1641   498
 7.1741   485
 7.1841   393
 7.1941   418
 7.2041   352
 7.2141   337
 7.2241   365
 7.2341   335
 7.2441   333
 7.2541   336
 7.2641   341
 7.2741   343
 7.2841   329
 7.2941   329
 7.3041   375
 7.3141   376
 7.3241   382
 7.3341   435
 7.3441   455
 7.3541   532
 7.3641   505
 7.3741   526
 7.3841   571
 7.3941   593
 7.4041   647
 7.4141   657
 7.4241   668
 7.4341   732
 7.4441   667
 7.4541   697
 7.4641   690
 7.4741   675
 7.4841   696
 7.4941   677
 7.5041   659
 7.5141   597
 7.5241   556
 7.5341   489
 7.5441   533
 7.5541   470
 7.5641   451
 7.5741   404
 7.5841   420
 7.5941   396
 7.6041   415
 7.6141   408
 7.6241   389
 7.6341   357
 7.6441   377
 7.6541   391
 7.6641   410
 7.6741   356
 7.6841   382
 7.6941   374
 7.7041   424
 7.7141   408
 7.7241   397
 7.7341   431
 7.7441   435
 7.7541   457
 7.7641   457
 7.7741   443
 7.7841   478
 7.7941   466
 7.8041   444
 7.8141   460
 7.8241   478
 7.8341   495
 7.8441   500
 7.8541   526
 7.8641   533
 7.8741   506
 7.8841   553
 7.8941   598
 7.9041   610
 7.9141   618
 7.9241   653
 7.9341   663
 7.9441   689
 7.9541   742
 7.9641   750
 7.9741   849
 7.9841   878
 7.9941   948
 8.0041   994
 8.0141  1092
 8.0241  1180
 8.0341  1270
 8.0441  1389
 8.0541  1465
 8.0641  1578
 8.0741  1607
 8.0841  1705
 8.0941  1875
 8.1041  1994
 8.1141  1991
 8.1241  2149
 8.1341  2205
 8.1441  2173
 8.1541  2368
 8.1641  2385
 8.1741  2441
 8.1841  2373
 8.1941  2455
 8.2041  2474
 8.2141  2487
 8.2241  2489
 8.2341  2550
 8.2441  2678
 8.2541  2668
 8.2641  2712
 8.2741  2830
 8.2841  3057
 8.2941  3210
 8.3041  3404
 8.3141  3608
 8.3241  3849
 8.3341  4091
 8.3441  4200
 8.3541  4438
 8.3641  4608
 8.3741  4762
 8.3841  4796
 8.3941  4646
 8.4041  4609
 8.4141  4453
 8.4241  4163
 8.4341  3980
 8.4441  3570
 8.4541  3260
 8.4641  2819
 8.4741  2508
 8.4841  2197
 8.4941  1907
 8.5041  1561
 8.5141  1327
 8.5241  1114
 8.5341   962
 8.5441   808
 8.5541   725
 8.5641   621
 8.5741   616
 8.5841   600
 8.5941   569
 8.6041   514
 8.6141   524
 8.6241   501
 8.6341   533
 8.6441   534
 8.6541   558
 8.6641   542
 8.6741   550
 8.6841   581
 8.6941   554
 8.7041   552
 8.7141   568
 8.7241   590
 8.7341   590
 8.7441   575
 8.7541   534
 8.7641   572
 8.7741   607
 8.7841   555
 8.7941   557
 8.8041   540
 8.8141   562
 8.8241   580
 8.8341   511
 8.8441   551
 8.8541   540
 8.8641   557
 8.8741   519
 8.8841   565
 8.8941   544
 8.9041   560
 8.9141   569
 8.9241   572
 8.9341   588
 8.9441   607
 8.9541   612
 8.9641   632
 8.9741   596
 8.9841   593
 8.9941   678
 9.0041   653
 9.0141   675
 9.0241   712
 9.0341   681
 9.0441   710
 9.0541   729
 9.0641   795
 9.0741   802
 9.0841   836
 9.0941   824
 9.1041   883
 9.1141   850
 9.1241   872
 9.1341  1001
 9.1441  1051
 9.1541  1035
 9.1641  1038
 9.1741  1077
 9.1841  1128
 9.1941  1169
 9.2041  1210
 9.2141  1322
 9.2241  1359
 9.2341  1476
 9.2441  1566
 9.2541  1667
 9.2641  1676
 9.2741  1757
 9.2841  1826
 9.2941  1851
 9.3041  1935
 9.3141  2032
 9.3241  2093
 9.3341  2186
 9.3441  2224
 9.3541  2289
 9.3641  2324
 9.3741  2404
 9.3841  2539
 9.3941  2444
 9.4041  2441
 9.4141  2533
 9.4241  2560
 9.4341  2584
 9.4441  2666
 9.4541  2631
 9.4641  2707
 9.4741  2781
 9.4841  2853
 9.4941  2989
 9.5041  3034
 9.5141  2960
 9.5241  3067
 9.5341  3142
 9.5441  3278
 9.5541  3483
 9.5641  3637
 9.5741  3856
 9.5841  4066
 9.5941  4289
 9.6041  4479
 9.6141  4765
 9.6241  4996
 9.6341  5127
 9.6441  5363
 9.6541  5469
 9.6641  5351
 9.6741  5456
 9.6841  5267
 9.6941  5226
 9.7041  5101
 9.7141  4662
 9.7241  4436
 9.7341  4243
 9.7441  3963
 9.7541  3727
 9.7641  3520
 9.7741  3149
 9.7841  2982
 9.7941  2842
 9.8041  2554
 9.8141  2461
 9.8241  2457
 9.8341  2448
 9.8441  2360
 9.8541  2437
 9.8641  2413
 9.8741  2375
 9.8841  2421
 9.8941  2547
 9.9041  2552
 9.9141  2594
 9.9241  2570
 9.9341  2613
 9.9441  2561
 9.9541  2605
 9.9641  2536
 9.9741  2505
 9.9841  2390
 9.9941  2233
10.0041  2141
10.0141  2019
10.0241  1872
10.0341  1724
10.0441  1538
10.0541  1350
10.0641  1242
10.0741  1120
10.0841  1008
10.0941   896
10.1041   788
10.1141   717
10.1241   664
10.1341   590
10.1441   539
10.1541   553
10.1641   525
10.1741   504
10.1841   463
10.1941   455
10.2041   428
10.2141   407
10.2241   396
10.2341   379
10.2441   370
10.2541   382
10.2641   344
10.2741   353
10.2841   311
10.2941   326
10.3041   319
10.3141   305
10.3241   309
10.3341   304
10.3441   331
10.3541   308
10.3641   335
10.3741   287
10.3841   293
10.3941   287
10.4041   297
10.4141   301
10.4241   292
10.4341   325
10.4441   325
10.4541   338
10.4641   310
10.4741   324
10.4841   327
10.4941   319
10.5041   310
10.5141   326
10.5241   316
10.5341   333
10.5441   344
10.5541   373
10.5641   350
10.5741   362
10.5841   354
10.5941   350
10.6041   362
10.6141   359
10.6241   333
10.6341   381
10.6441   384
10.6541   367
10.6641   375
10.6741   397
10.6841   392
10.6941   412
10.7041   423
10.7141   399
10.7241   432
10.7341   470
10.7441   441
10.7541   482
10.7641   458
10.7741   451
10.7841   475
10.7941   484
10.8041   482
10.8141   501
10.8241   496
10.8341   534
10.8441   544
10.8541   553
10.8641   532
10.8741   544
10.8841   527
10.8941   559
10.9041   576
10.9141   561
10.9241   553
10.9341   544
10.9441   583
10.9541   590
10.9641   541
10.9741   525
10.9841   552
10.9941   532
11.0041   551
11.0141   536
11.0241   507
11.0341   504
11.0441   502
11.0541   515
11.0641   498
11.0741   482
11.0841   489
11.0941   487
11.1041   484
11.1141   516
11.1241   525
11.1341   502
11.1441   503
11.1541   560
11.1641   590
11.1741   594
11.1841   624
11.1941   673
11.2041   701
11.2141   709
11.2241   786
11.2341   804
11.2441   822
11.2541   863
11.2641   864
11.2741   839
11.2841   821
11.2941   830
11.3041   827
11.3141   823
11.3241   797
11.3341   728
11.3441   705
11.3541   662
11.3641   630
11.3741   598
11.3841   613
11.3941   557
11.4041   503
11.4141   473
11.4241   436
11.4341   439
11.4441   424
11.4541   430
11.4641   419
11.4741   403
11.4841   392
11.4941   391
11.5041   393
11.5141   398
11.5241   401
11.5341   406
11.5441   392
11.5541   389
11.5641   395
11.5741   400
11.5841   404
11.5941   419
11.6041   414
11.6141   425
11.6241   439
11.6341   445
11.6441   438
11.6541   424
11.6641   399
11.6741   417
11.6841   412
11.6941   383
11.7041   362
11.7141   376
11.7241   389
11.7341   373
11.7441   352
11.7541   339
11.7641   317
11.7741   310
11.7841   338
11.7941   314
11.8041   292
11.8141   287
11.8241   295
11.8341   286
11.8441   295
11.8541   303
11.8641   292
11.8741   281
11.8841   290
11.8941   305
11.9041   313
11.9141   318
11.9241   291
11.9341   286
11.9441   279
11.9541   298
11.9641   302
11.9741   297
11.9841   294
11.9941   307
12.0041   317
12.0141   314
12.0241   293
12.0341   301
12.0441   309
12.0541   316
12.0641   311
12.0741   315
12.0841   305
12.0941   311
12.1041   341
12.1141   314
12.1241   295
12.1341   308
12.1441   276
12.1541   265
12.1641   291
12.1741   294
12.1841   283
12.1941   307
12.2041   292
12.2141   256
12.2241   278
12.2341   295
12.2441   296
12.2541   291
12.2641   294
12.2741   297
12.2841   308
12.2941   292
12.3041   295
12.3141   302
12.3241   281
12.3341   290
12.3441   294
12.3541   271
12.3641   276
12.3741   292
12.3841   291
12.3941   296
12.4041   301
12.4141   281
12.4241   286
12.4341   289
12.4441   274
12.4541   292
12.4641   287
12.4741   291
12.4841   298
12.4941   300
12.5041   299
12.5141   308
12.5241   301
12.5341   287
12.5441   291
12.5541   289
12.5641   294
12.5741   293
12.5841   333
12.5941   325
12.6041   307
12.6141   326
12.6241   321
12.6341   314
12.6441   319
12.6541   302
12.6641   295
12.6741   308
12.6841   322
12.6941   311
12.7041   313
12.7141   320
12.7241   330
12.7341   320
12.7441   324
12.7541   318
12.7641   322
12.7741   328
12.7841   323
12.7941   323
12.8041   315
12.8141   307
12.8241   320
12.8341   323
12.8441   311
12.8541   317
12.8641   315
12.8741   319
12.8841   326
12.8941   340
12.9041   335
12.9141   312
12.9241   308
12.9341   332
12.9441   339
12.9541   338
12.9641   337
12.9741   344
12.9841   325
12.9941   311
13.0041   343
13.0141   362
13.0241   359
13.0341   354
13.0441   351
13.0541   340
13.0641   338
13.0741   355
13.0841   342
13.0941   346
13.1041   368
13.1141   360
13.1241   336
13.1341   349
13.1441   339
13.1541   339
13.1641   370
13.1741   364
13.1841   347
13.1941   357
13.2041   379
13.2141   369
13.2241   390
13.2341   390
13.2441   366
13.2541   379
13.2641   411
13.2741   409
13.2841   406
13.2941   416
13.3041   412
13.3141   424
13.3241   447
13.3341   442
13.3441   446
13.3541   461
13.3641   463
13.3741   454
13.3841   440
13.3941   423
13.4041   422
13.4141   428
13.4241   440
13.4341   430
13.4441   432
13.4541   463
13.4641   440
13.4741   438
13.4841   440
13.4941   424
13.5041   413
13.5141   411
13.5241   420
13.5341   397
13.5441   401
13.5541   408
13.5641   405
13.5741   428
13.5841   436
13.5941   425
13.6041   422
13.6141   397
13.6241   402
13.6341   414
13.6441   414
13.6541   415
13.6641   412
13.6741   421
13.6841   420
13.6941   417
13.7041   434
13.7141   408
13.7241   401
13.7341   425
13.7441   422
13.7541   414
13.7641   408
13.7741   409
13.7841   417
13.7941   411
13.8041   409
13.8141   432
13.8241   416
13.8341   394
13.8441   419
13.8541   446
13.8641   434
13.8741   438
13.8841   438
13.8941   426
13.9041   435
13.9141   449
13.9241   446
13.9341   453
13.9441   477
13.9541   477
13.9641   496
13.9741   520
13.9841   508
13.9941   503
14.0041   528
14.0141   538
14.0241   525
14.0341   576
14.0441   605
14.0541   591
14.0641   618
14.0741   624
14.0841   640
14.0941   656
14.1041   657
14.1141   668
14.1241   684
14.1341   707
14.1441   715
14.1541   700
14.1641   711
14.1741   747
14.1841   719
14.1941   673
14.2041   674
14.2141   667
14.2241   642
14.2341   598
14.2441   571
14.2541   591
14.2641   579
14.2741   557
14.2841   553
14.2941   517
14.3041   475
14.3141   480
14.3241   492
14.3341   511
14.3441   497
14.3541   483
14.3641   499
14.3741   482
14.3841   472
14.3941   502
14.4041   504
14.4141   484
14.4241   497
14.4341   497
14.4441   475
14.4541   471
14.4641   465
14.4741   465
14.4841   463
14.4941   479
14.5041   495
14.5141   490
14.5241   492
14.5341   495
14.5441   523
14.5541   545
14.5641   526
14.5741   525
14.5841   528
14.5941   505
14.6041   485
14.6141   481
14.6241   510
14.6341   518
14.6441   500
14.6541   493
14.6641   506
14.6741   492
14.6841   496
14.6941   515
14.7041   524
14.7141   526
14.7241   519
14.7341   522
14.7441   515
14.7541   519
14.7641   534
14.7741   534
14.7841   507
14.7941   520
14.8041   545
14.8141   522
14.8241   536
14.8341   552
14.8441   558
14.8541   540
14.8641   530
14.8741   545
14.8841   540
14.8941   555
14.9041   569
14.9141   568
14.9241   561
14.9341   542
14.9441   550
14.9541   580
14.9641   565
14.9741   543
14.9841   555
14.9941   570
15.0041   543
15.0141   553
15.0241   565
15.0341   538
15.0441   557
15.0541   561
15.0641   556
15.0741   553
15.0841   571
15.0941   560
15.1041   547
15.1141   562
15.1241   578
15.1341   543
15.1441   539
15.1541   570
15.1641   541
15.1741   551
15.1841   555
15.1941   550
15.2041   550
15.2141   547
15.2241   556
15.2341   581
15.2441   587
15.2541   577
15.2641   576
15.2741   579
15.2841   587
15.2941   557
15.3041   568
15.3141   592
15.3241   590
15.3341   575
15.3441   564
15.3541   551
15.3641   558
15.3741   591
15.3841   612
15.3941   567
15.4041   582
15.4141   603
15.4241   573
15.4341   579
15.4441   573
15.4541   584
15.4641   597
15.4741   591
15.4841   586
15.4941   570
15.5041   621
15.5141   645
15.5241   635
15.5341   603
15.5441   617
15.5541   641
15.5641   655
15.5741   683
15.5841   697
15.5941   715
15.6041   706
15.6141   724
15.6241   732
15.6341   746
15.6441   789
15.6541   790
15.6641   786
15.6741   804
15.6841   837
15.6941   896
15.7041   917
15.7141   937
15.7241   904
15.7341   903
15.7441   913
15.7541   941
15.7641   945
15.7741   941
15.7841   944
15.7941   907
15.8041   892
15.8141   921
15.8241   877
15.8341   865
15.8441   832
15.8541   808
15.8641   803
15.8741   782
15.8841   766
15.8941   741
15.9041   732
15.9141   729
15.9241   718
15.9341   705
15.9441   708
15.9541   696
15.9641   677
15.9741   692
15.9841   681
15.9941   662
16.0041   650
16.0141   684
16.0241   694
16.0341   659
16.0441   655
16.0541   664
16.0641   659
16.0741   673
16.0841   677
16.0941   670
16.1041   681
16.1141   682
16.1241   695
16.1341   688
16.1441   676
16.1541   655
16.1641   654
16.1741   646
16.1841   674
16.1941   654
16.2041   673
16.2141   707
16.2241   691
16.2341   708
16.2441   701
16.2541   687
16.2641   675
16.2741   691
16.2841   671
16.2941   674
16.3041   684
16.3141   697
16.3241   689
16.3341   704
16.3441   664
16.3541   652
16.3641   670
16.3741   694
16.3841   662
16.3941   666
16.4041   723
16.4141   716
16.4241   700
16.4341   709
16.4441   702
16.4541   686
16.4641   676
16.4741   695
16.4841   672
16.4941   662
16.5041   697
16.5141   737
16.5241   704
16.5341   735
16.5441   757
16.5541   747
16.5641   695
16.5741   697
16.5841   736
16.5941   730
16.6041   726
16.6141   761
16.6241   730
16.6341   751
16.6441   734
16.6541   733
16.6641   753
16.6741   755
16.6841   748
16.6941   733
16.7041   691
16.7141   718
16.7241   742
16.7341   734
16.7441   720
16.7541   734
16.7641   739
16.7741   728
16.7841   774
16.7941   784
16.8041   718
16.8141   728
16.8241   710
16.8341   711
16.8441   712
16.8541   721
16.8641   751
16.8741   741
16.8841   749
16.8941   745
16.9041   750
16.9141   743
16.9241   741
16.9341   730
16.9441   758
16.9541   773
16.9641   767
16.9741   757
16.9841   767
16.9941   787
17.0041   765
17.0141   755
17.0241   740
17.0341   742
17.0441   775
17.0541   798
17.0641   769
17.0741   773
17.0841   792
17.0941   792
17.1041   815
17.1141   798
17.1241   773
17.1341   774
17.1441   771
17.1541   773
17.1641   787
17.1741   798
17.1841   759
17.1941   758
17.2041   764
17.2141   786
17.2241   792
17.2341   803
17.2441   818
17.2541   807
17.2641   852
17.2741   828
17.2841   815
17.2941   796
17.3041   805
17.3141   804
17.3241   827
17.3341   825
17.3441   828
17.3541   808
17.3641   845
17.3741   836
17.3841   849
17.3941   805
17.4041   805
17.4141   836
17.4241   829
17.4341   831
17.4441   842
17.4541   799
17.4641   838
17.4741   806
17.4841   848
17.4941   843
17.5041   813
17.5141   846
17.5241   848
17.5341   844
17.5441   824
17.5541   861
17.5641   867
17.5741   912
17.5841   906
17.5941   877
17.6041   892
17.6141   896
17.6241   889
17.6341   887
17.6441   879
17.6541   887
17.6641   914
17.6741   898
17.6841   920
17.6941   920
17.7041   915
17.7141   920
17.7241   915
17.7341   928
17.7441   885
17.7541   831
17.7641   836
17.7741   830
17.7841   846
17.7941   858
17.8041   892
17.8141   873
17.8241   836
17.8341   898
17.8441   864
17.8541   844
17.8641   825
17.8741   868
17.8841   911
17.8941   897
17.9041   880
17.9141   878
17.9241   883
17.9341   831
17.9441   846
17.9541   830
17.9641   825
17.9741   842
17.9841   838
17.9941   877
18.0041   878
18.0141   864
18.0241   869
18.0341   903
18.0441   864
18.0541   817
18.0641   859
18.0741   881
18.0841   887
18.0941   840
18.1041   874
18.1141   913
18.1241   917
18.1341   851
18.1441   855
18.1541   876
18.1641   890
18.1741   854
18.1841   900
18.1941   890
18.2041   845
18.2141   888
18.2241   826
18.2341   885
18.2441   885
18.2541   878
18.2641   902
18.2741   848
18.2841   856
18.2941   877
18.3041   869
18.3141   910
18.3241   900
18.3341   901
18.3441   922
18.3541   933
18.3641   911
18.3741   893
18.3841   855
18.3941   904
18.4041   879
18.4141   854
18.4241   859
18.4341   923
18.4441   910
18.4541   910
18.4641   909
18.4741   866
18.4841   876
18.4941   890
18.5041   890
18.5141   920
18.5241   861
18.5341   912
18.5441   902
18.5541   901
18.5641   922
18.5741   890
18.5841   880
18.5941   910
18.6041   928
18.6141  1001
18.6241   899
18.6341   851
18.6441   938
18.6541   985
18.6641   963
18.6741   948
18.6841   917
18.6941   913
18.7041   933
18.7141   897
18.7241   896
18.7341   941
18.7441   910
18.7541   912
18.7641   944
18.7741   923
18.7841   969
18.7941   965
18.8041   946
18.8141   956
18.8241   962
18.8341   950
18.8441   951
18.8541   978
18.8641   935
18.8741   970
18.8841   964
18.8941   949
18.9041   943
18.9141   952
18.9241   997
18.9341  1023
18.9441   944
18.9541   929
18.9641   931
18.9741   942
18.9841   922
18.9941   939
19.0041   917
19.0141   958
19.0241   923
19.0341   937
19.0441   934
19.0541   892
19.0641   905
19.0741   959
19.0841   977
19.0941   948
19.1041   984
19.1141   975
19.1241   941
19.1341   943
19.1441   928
19.1541   978
19.1641   953
19.1741   959
19.1841   948
19.1941   966
19.2041  1013
19.2141   966
19.2241   941
19.2341   940
19.2441   949
19.2541   941
19.2641   955
19.2741   975
19.2841   915
19.2941   906
19.3041   972
19.3141   935
19.3241   950
19.3341   967
19.3441   997
19.3541   918
19.3641   941
19.3741   972
19.3841   964
19.3941   932
19.4041   955
19.4141   932
19.4241   910
19.4341   956
19.4441   959
19.4541   969
19.4641   923
19.4741   954
19.4841   969
19.4941   973
19.5041   959
19.5141   990
19.5241   970
19.5341   974
19.5441  1009
19.5541   991
19.5641   957
19.5741   979
19.5841   981
19.5941  1027
19.6041  1014
19.6141  1002
19.6241   973
19.6341   982
19.6441   980
19.6541   985
19.6641   957
19.6741   976
19.6841   972
19.6941   967
19.7041   936
19.7141   942
19.7241   944
19.7341   939
19.7441   955
19.7541   986
19.7641   986
19.7741   999
19.7841   975
19.7941  1009
19.8041  1013
19.8141   945
19.8241   964
19.8341   971
19.8441   964
19.8541   945
19.8641   954
19.8741   959
19.8841   955
19.8941  1024
19.9041   974
19.9141   986
19.9241   956
19.9341   932
19.9441   965
19.9541   964
19.9641  1006
19.9741   992
19.9841   988
19.9941   982
20.0041  1004
20.0141   950
20.0241   979
20.0341   945
20.0441  1019
20.0541   979
20.0641   994
20.0741  1015
20.0841   960
20.0941  1019
20.1041  1022
20.1141  1004
20.1241   974
20.1341  1006
20.1441  1008
20.1541   946
20.1641   973
20.1741   984
20.1841   980
20.1941   998
20.2041   961
20.2141   993
20.2241   952
20.2341  1039
20.2441   990
20.2541  1010
20.2641  1028
20.2741  1013
20.2841  1082
20.2941   975
20.3041   945
20.3141   951
20.3241   977
20.3341   933
20.3441   970
20.3541   910
20.3641   939
20.3741  1016
20.3841   972
20.3941  1021
20.4041  1017
20.4141   989
20.4241   950
20.4341  1043
20.4441   985
20.4541  1029
20.4641   993
20.4741  1049
20.4841   950
20.4941   969
20.5041   944
20.5141  1008
20.5241  1012
20.5341   992
20.5441   937
20.5541   995
20.5641   983
20.5741   999
20.5841  1047
20.5941  1021
20.6041  1008
20.6141   983
20.6241  1064
20.6341  1026
20.6441   975
20.6541  1003
20.6641  1006
20.6741   984
20.6841  1046
20.6941  1027
20.7041  1002
20.7141   971
20.7241  1025
20.7341   989
20.7441  1003
20.7541   960
20.7641  1005
20.7741   990
20.7841  1054
20.7941  1027
20.8041  1030
20.8141  1038
20.8241  1053
20.8341  1083
20.8441   997
20.8541  1053
20.8641  1056
20.8741  1079
20.8841  1044
20.8941  1128
20.9041  1144
20.9141  1151
20.9241  1109
20.9341  1188
20.9441  1199
20.9541  1221
20.9641  1178
20.9741  1181
20.9841  1232
20.9941  1305
21.0041  1272
21.0141  1313
21.0241  1267
21.0341  1317
21.0441  1317
21.0541  1376
21.0641  1404
21.0741  1382
21.0841  1403
21.0941  1361
21.1041  1438
21.1141  1444
21.1241  1434
21.1341  1461
21.1441  1426
21.1541  1454
21.1641  1466
21.1741  1406
21.1841  1406
21.1941  1398
21.2041  1354
21.2141  1352
21.2241  1365
21.2341  1336
21.2441  1310
21.2541  1278
21.2641  1246
21.2741  1257
21.2841  1211
21.2941  1218
21.3041  1120
21.3141  1128
21.3241  1070
21.3341  1029
21.3441  1108
21.3541  1081
21.3641  1064
21.3741  1049
21.3841  1033
21.3941  1043
21.4041  1033
21.4141  1005
21.4241  1024
21.4341  1024
21.4441  1004
21.4541  1014
21.4641   987
21.4741   998
21.4841   985
21.4941   982
21.5041   980
21.5141  1033
21.5241  1003
21.5341   996
21.5441   985
21.5541  1042
21.5641   930
21.5741   970
21.5841   968
21.5941   965
21.6041   972
21.6141  1036
21.6241  1003
21.6341  1005
21.6441  1017
21.6541  1039
21.6641   950
21.6741   944
21.6841   971
21.6941  1010
21.7041  1031
21.7141  1010
21.7241  1036
21.7341   982
21.7441   989
21.7541  1028
21.7641   941
21.7741   907
21.7841   940
21.7941   978
21.8041   980
21.8141   987
21.8241  1005
21.8341   986
21.8441   948
21.8541   972
21.8641   972
21.8741   952
21.8841  1005
21.8941   986
21.9041   986
21.9141   979
21.9241  1044
21.9341   959
21.9441  1006
21.9541   981
21.9641   981
21.9741  1005
21.9841   997
21.9941   992
22.0041   954
22.0141   968
22.0241  1036
22.0341  1015
22.0441   944
22.0541  1018
22.0641  1018
22.0741  1045
22.0841   968
22.0941   997
22.1041  1042
22.1141   957
22.1241   980
22.1341   982
22.1441  1000
22.1541   965
22.1641   995
22.1741  1042
22.1841   971
22.1941  1000
22.2041   985
22.2141   997
22.2241   979
22.2341   999
22.2441  1017
22.2541   972
22.2641   953
22.2741   985
22.2841   912
22.2941  1008
22.3041   953
22.3141   961
22.3241   976
22.3341   977
22.3441   944
22.3541   984
22.3641   988
22.3741   951
22.3841   921
22.3941   993
22.4041   958
22.4141   970
22.4241   960
22.4341   973
22.4441   879
22.4541   958
22.4641   987
22.4741   979
22.4841   994
22.4941   996
22.5041   913
22.5141   948
22.5241   977
22.5341   905
22.5441   995
22.5541   937
22.5641   975
22.5741   962
22.5841   890
22.5941   950
22.6041   966
22.6141   976
22.6241   957
22.6341   977
22.6441   955
22.6541   931
22.6641   983
22.6741   925
22.6841   970
22.6941   978
22.7041   908
22.7141   909
22.7241   932
22.7341   887
22.7441   951
22.7541   955
22.7641   949
22.7741   970
22.7841  1007
22.7941   926
22.8041   984
22.8141   939
22.8241  1010
22.8341   958
22.8441   947
22.8541   987
22.8641   942
22.8741  1006
22.8841   980
22.8941   956
22.9041   968
22.9141   949
22.9241   976
22.9341   935
22.9441   957
22.9541   961
22.9641   954
22.9741   921
22.9841   936
22.9941   963
23.0041   914
23.0141   950
23.0241  1004
23.0341   952
23.0441   959
23.0541   973
23.0641   921
23.0741   942
23.0841   973
23.0941   936
23.1041   975
23.1141   941
23.1241   868
23.1341   943
23.1441   969
23.1541   901
23.1641   881
23.1741   980
23.1841   933
23.1941   899
23.2041   919
23.2141   896
23.2241   909
23.2341   925
23.2441   974
23.2541   908
23.2641   896
23.2741   955
23.2841   970
23.2941   859
23.3041   963
23.3141   957
23.3241   921
23.3341   907
23.3441   906
23.3541   921
23.3641   918
23.3741   930
23.3841   911
23.3941   965
23.4041   893
23.4141   925
23.4241   953
23.4341   937
23.4441   887
23.4541   881
23.4641   949
23.4741   960
23.4841   921
23.4941   870
23.5041   934
23.5141   892
23.5241   920
23.5341   945
23.5441   893
23.5541   936
23.5641   931
23.5741   858
23.5841   935
23.5941   910
23.6041   949
23.6141   959
23.6241   954
23.6341   940
23.6441   900
23.6541   999
23.6641   932
23.6741   927
23.6841   916
23.6941   922
23.7041   971
23.7141   942
23.7241   898
23.7341   945
23.7441   942
23.7541   941
23.7641   997
23.7741  1038
23.7841  1002
23.7941   918
23.8041   947
23.8141   972
23.8241   993
23.8341  1011
23.8441   963
23.8541   972
23.8641   981
23.8741  1008
23.8841   994
23.8941   995
23.9041   968
23.9141   923
23.9241   914
23.9341   925
23.9441   923
23.9541   901
23.9641   936
23.9741   894
23.9841   896
23.9941   851
24.0041   909
24.0141   851
24.0241   861
24.0341   841
24.0441   919
24.0541   893
24.0641   837
24.0741   919
24.0841   905
24.0941   904
24.1041   855
24.1141   851
24.1241   882
24.1341   848
24.1441   848
24.1541   866
24.1641   813
24.1741   861
24.1841   874
24.1941   859
24.2041   873
24.2141   876
24.2241   860
24.2341   938
24.2441   869
24.2541   882
24.2641   867
24.2741   898
24.2841   842
24.2941   833
24.3041   875
24.3141   882
24.3241   884
24.3341   831
24.3441   852
24.3541   918
24.3641   840
24.3741   821
24.3841   858
24.3941   923
24.4041   891
24.4141   864
24.4241   862
24.4341   865
24.4441   886
24.4541   837
24.4641   852
24.4741   841
24.4841   848
24.4941   874
24.5041   858
24.5141   856
24.5241   831
24.5341   850
24.5441   810
24.5541   831
24.5641   799
24.5741   802
24.5841   862
24.5941   874
24.6041   859
24.6141   880
24.6241   829
24.6341   855
24.6441   854
24.6541   828
24.6641   853
24.6741   847
24.6841   853
24.6941   831
24.7041   873
24.7141   836
24.7241   862
24.7341   900
24.7441   856
24.7541   791
24.7641   820
24.7741   837
24.7841   838
24.7941   812
24.8041   825
24.8141   857
24.8241   822
24.8341   810
24.8441   795
24.8541   855
24.8641   817
24.8741   823
24.8841   797
24.8941   737
24.9041   803
24.9141   822
24.9241   810
24.9341   862
24.9441   779
24.9541   844
24.9641   789
24.9741   827
24.9841   806
24.9941   860
25.0041   837
25.0141   808
25.0241   848
25.0341   872
25.0441   815
25.0541   840
25.0641   834
25.0741   846
25.0841   825
25.0941   837
25.1041   782
25.1141   789
25.1241   782
25.1341   797
25.1441   852
25.1541   845
25.1641   859
25.1741   818
25.1841   841
25.1941   820
25.2041   870
25.2141   842
25.2241   823
25.2341   799
25.2441   785
25.2541   797
25.2641   820
25.2741   811
25.2841   846
25.2941   838
25.3041   789
25.3141   829
25.3241   830
25.3341   849
25.3441   777
25.3541   804
25.3641   839
25.3741   766
25.3841   835
25.3941   806
25.4041   885
25.4141   835
25.4241   785
25.4341   818
25.4441   813
25.4541   827
25.4641   788
25.4741   800
25.4841   790
25.4941   783
25.5041   792
25.5141   797
25.5241   834
25.5341   795
25.5441   789
25.5541   775
25.5641   760
25.5741   811
25.5841   787
25.5941   810
25.6041   775
25.6141   754
25.6241   748
25.6341   755
25.6441   763
25.6541   761
25.6641   749
25.6741   761
25.6841   809
25.6941   778
25.7041   772
25.7141   768
25.7241   771
25.7341   764
25.7441   772
25.7541   762
25.7641   781
25.7741   684
25.7841   751
25.7941   736
25.8041   718
25.8141   747
25.8241   767
25.8341   767
25.8441   766
25.8541   736
25.8641   759
25.8741   773
25.8841   753
25.8941   760
25.9041   720
25.9141   725
25.9241   755
25.9341   725
25.9441   757
25.9541   716
25.9641   757
25.9741   737
25.9841   703
25.9941   745
26.0041   765
26.0141   745
26.0241   752
26.0341   760
26.0441   755
26.0541   724
26.0641   731
26.0741   764
26.0841   756
26.0941   735
26.1041   755
26.1141   725
26.1241   785
26.1341   725
26.1441   735
26.1541   711
26.1641   707
26.1741   780
26.1841   730
26.1941   709
26.2041   734
26.2141   701
26.2241   728
26.2341   719
26.2441   713
26.2541   718
26.2641   712
26.2741   651
26.2841   726
26.2941   718
26.3041   690
26.3141   747
26.3241   737
26.3341   722
26.3441   703
26.3541   717
26.3641   719
26.3741   757
26.3841   705
26.3941   741
26.4041   704
26.4141   709
26.4241   687
26.4341   682
26.4441   719
26.4541   683
26.4641   724
26.4741   688
26.4841   671
26.4941   725
26.5041   714
26.5141   720
26.5241   673
26.5341   676
26.5441   741
26.5541   688
26.5641   689
26.5741   716
26.5841   663
26.5941   708
26.6041   697
26.6141   671
26.6241   665
26.6341   682
26.6441   686
26.6541   656
26.6641   680
26.6741   706
26.6841   698
26.6941   697
26.7041   731
26.7141   706
26.7241   719
26.7341   708
26.7441   692
26.7541   691
26.7641   674
26.7741   665
26.7841   651
26.7941   685
26.8041   656
26.8141   699
26.8241   679
26.8341   670
26.8441   641
26.8541   665
26.8641   695
26.8741   697
26.8841   662
26.8941   703
26.9041   620
26.9141   652
26.9241   649
26.9341   656
26.9441   693
26.9541   674
26.9641   698
26.9741   638
26.9841   655
26.9941   649
27.0041   677
27.0141   661
27.0241   690
27.0341   641
27.0441   680
27.0541   672
27.0641   636
27.0741   674
27.0841   648
27.0941   653
27.1041   683
27.1141   633
27.1241   643
27.1341   691
27.1441   660
27.1541   643
27.1641   633
27.1741   708
27.1841   684
27.1941   695
27.2041   671
27.2141   656
27.2241   599
27.2341   660
27.2441   646
27.2541   645
27.2641   665
27.2741   651
27.2841   672
27.2941   701
27.3041   649
27.3141   643
27.3241   645
27.3341   662
27.3441   644
27.3541   679
27.3641   644
27.3741   672
27.3841   660
27.3941   656
27.4041   649
27.4141   632
27.4241   624
27.4341   581
27.4441   605
27.4541   625
27.4641   641
27.4741   649
27.4841   635
27.4941   614
27.5041   639
27.5141   673
27.5241   655
27.5341   628
27.5441   633
27.5541   641
27.5641   635
27.5741   604
27.5841   615
27.5941   624
27.6041   615
27.6141   599
27.6241   621
27.6341   586
27.6441   601
27.6541   632
27.6641   624
27.6741   631
27.6841   558
27.6941   615
27.7041   620
27.7141   624
27.7241   601
27.7341   638
27.7441   608
27.7541   591
27.7641   630
27.7741   616
27.7841   611
27.7941   627
27.8041   590
27.8141   616
27.8241   619
27.8341   612
27.8441   610
27.8541   633
27.8641   618
27.8741   613
27.8841   595
27.8941   588
27.9041   627
27.9141   632
27.9241   573
27.9341   622
27.9441   566
27.9541   608
27.9641   610
27.9741   577
27.9841   604
27.9941   542
28.0041   545
28.0141   596
28.0241   589
28.0341   569
28.0441   616
28.0541   588
28.0641   580
28.0741   598
28.0841   576
28.0941   599
28.1041   585
28.1141   549
28.1241   601
28.1341   552
28.1441   612
28.1541   564
28.1641   581
28.1741   611
28.1841   594
28.1941   613
28.2041   578
28.2141   550
28.2241   571
28.2341   560
28.2441   560
28.2541   559
28.2641   533
28.2741   556
28.2841   632
28.2941   568
28.3041   599
28.3141   587
28.3241   572
28.3341   559
28.3441   568
28.3541   590
28.3641   623
28.3741   592
28.3841   523
28.3941   519
28.4041   548
28.4141   588
28.4241   535
28.4341   547
28.4441   585
28.4541   549
28.4641   551
28.4741   520
28.4841   573
28.4941   575
28.5041   568
28.5141   586
28.5241   575
28.5341   585
28.5441   531
28.5541   537
28.5641   560
28.5741   561
28.5841   532
28.5941   550
28.6041   516
28.6141   541
28.6241   582
28.6341   536
28.6441   559
28.6541   532
28.6641   555
28.6741   550
28.6841   546
28.6941   583
28.7041   524
28.7141   559
28.7241   538
28.7341   531
28.7441   524
28.7541   521
28.7641   538
28.7741   574
28.7841   515
28.7941   520
28.8041   529
28.8141   495
28.8241   526
28.8341   548
28.8441   516
28.8541   534
28.8641   461
28.8741   505
28.8841   516
28.8941   531
28.9041   507
28.9141   510
28.9241   518
28.9341   508
28.9441   521
28.9541   531
28.9641   527
28.9741   509
28.9841   543
28.9941   499
29.0041   504
29.0141   461
29.0241   488
29.0341   520
29.0441   563
29.0541   517
29.0641   494
29.0741   532
29.0841   487
29.0941   564
29.1041   525
29.1141   495
29.1241   501
29.1341   488
29.1441   476
29.1541   505
29.1641   488
29.1741   523
29.1841   488
29.1941   492
29.2041   502
29.2141   478
29.2241   513
29.2341   514
29.2441   489
29.2541   509
29.2641   486
29.2741   499
29.2841   492
29.2941   498
29.3041   520
29.3141   497
29.3241   461
29.3341   465
29.3441   469
29.3541   491
29.3641   499
29.3741   472
29.3841   521
29.3941   488
29.4041   490
29.4141   488
29.4241   509
29.4341   497
29.4441   474
29.4541   495
29.4641   465
29.4741   497
29.4841   485
29.4941   454
29.5041   499
29.5141   481
29.5241   496
29.5341   535
29.5441   467
29.5541   520
29.5641   491
29.5741   474
29.5841   473
29.5941   499
29.6041   501
29.6141   470
29.6241   516
29.6341   464
29.6441   475
29.6541   441
29.6641   470
29.6741   543
29.6841   490
29.6941   471
29.7041   450
29.7141   433
29.7241   453
29.7341   470
29.7441   467
29.7541   448
29.7641   473
29.7741   472
29.7841   428
29.7941   435
29.8041   476
29.8141   453
29.8241   440
29.8341   446
29.8441   464
29.8541   451
29.8641   432
29.8741   437
29.8841   411
29.8941   460
29.9041   462
29.9141   427
29.9241   444
29.9341   465
29.9441   457
29.9541   467
29.9641   432
29.9741   451
29.9841   434
29.9941   436
30.0041   484
30.0141   458
30.0241   430
30.0341   451
30.0441   449
30.0541   428
30.0641   477
30.0741   473
30.0841   482
30.0941   440
30.1041   442
30.1141   459
30.1241   436
30.1341   459
30.1441   398
30.1541   462
30.1641   476
30.1741   431
30.1841   421
30.1941   414
30.2041   459
30.2141   413
30.2241   414
30.2341   445
30.2441   472
30.2541   437
30.2641   435
30.2741   429
30.2841   422
30.2941   417
30.3041   424
30.3141   423
30.3241   423
30.3341   430
30.3441   406
30.3541   423
30.3641   436
30.3741   437
30.3841   413
30.3941   445
30.4041   440
30.4141   439
30.4241   409
30.4341   441
30.4441   444
30.4541   400
30.4641   430
30.4741   398
30.4841   430
30.4941   408
30.5041   386
30.5141   411
30.5241   436
30.5341   391
30.5441   434
30.5541   378
30.5641   440
30.5741   419
30.5841   379
30.5941   423
30.6041   411
30.6141   380
30.6241   402
30.6341   414
30.6441   403
30.6541   386
30.6641   430
30.6741   398
30.6841   387
30.6941   402
30.7041   404
30.7141   392
30.7241   411
30.7341   360
30.7441   392
30.7541   383
30.7641   380
30.7741   394
30.7841   414
30.7941   386
30.8041   393
30.8141   439
30.8241   411
30.8341   399
30.8441   388
30.8541   387
30.8641   430
30.8741   410
30.8841   372
30.8941   387
30.9041   409
30.9141   392
30.9241   393
30.9341   416
30.9441   408
30.9541   399
30.9641   406
30.9741   379
30.9841   363
30.9941   415
31.0041   362
31.0141   402
31.0241   415
31.0341   378
31.0441   394
31.0541   380
31.0641   403
31.0741   372
31.0841   364
31.0941   364
31.1041   379
31.1141   397
31.1241   373
31.1341   399
31.1441   384
31.1541   397
31.1641   408
31.1741   365
31.1841   360
31.1941   368
31.2041   376
31.2141   366
31.2241   372
31.2341   353
31.2441   372
31.2541   364
31.2641   364
31.2741   340
31.2841   352
31.2941   375
31.3041   357
31.3141   363
31.3241   381
31.3341   344
31.3441   380
31.3541   361
31.3641   380
31.3741   355
31.3841   393
31.3941   356
31.4041   371
31.4141   362
31.4241   371
31.4341   356
31.4441   385
31.4541   334
31.4641   348
31.4741   324
31.4841   331
31.4941   351
31.5041   370
31.5141   352
31.5241   321
31.5341   335
31.5441   364
31.5541   361
31.5641   356
31.5741   339
31.5841   320
31.5941   328
31.6041   358
31.6141   357
31.6241   342
31.6341   353
31.6441   357
31.6541   370
31.6641   376
31.6741   367
31.6841   368
31.6941   374
31.7041   359
31.7141   352
31.7241   325
31.7341   399
31.7441   352
31.7541   339
31.7641   344
31.7741   352
31.7841   347
31.7941   365
31.8041   357
31.8141   326
31.8241   323
31.8341   365
31.8441   348
31.8541   350
31.8641   287
31.8741   319
31.8841   309
31.8941   331
31.9041   335
31.9141   368
31.9241   336
31.9341   341
31.9441   332
31.9541   320
31.9641   316
31.9741   342
31.9841   309
31.9941   321
32.0041   342
32.0141   317
32.0241   348
32.0341   333
32.0441   347
32.0541   315
32.0641   319
32.0741   305
32.0841   297
32.0941   312
32.1041   358
32.1141   306
32.1241   320
32.1341   362
32.1441   328
32.1541   338
32.1641   328
32.1741   349
32.1841   315
32.1941   325
32.2041   349
32.2141   368
32.2241   323
32.2341   313
32.2441   352
32.2541   336
32.2641   324
32.2741   330
32.2841   304
32.2941   301
32.3041   307
32.3141   308
32.3241   317
32.3341   288
32.3441   269
32.3541   310
32.3641   315
32.3741   282
32.3841   301
32.3941   326
32.4041   316
32.4141   293
32.4241   294
32.4341   324
32.4441   266
32.4541   291
32.4641   291
32.4741   311
32.4841   319
32.4941   306
32.5041   299
32.5141   291
32.5241   278
32.5341   320
32.5441   295
32.5541   288
32.5641   285
32.5741   300
32.5841   295
32.5941   303
32.6041   303
32.6141   302
32.6241   280
32.6341   267
32.6441   287
32.6541   294
32.6641   308
32.6741   274
32.6841   286
32.6941   270
32.7041   282
32.7141   272
32.7241   258
32.7341   284
32.7441   256
32.7541   272
32.7641   289
32.7741   302
32.7841   297
32.7941   284
32.8041   268
32.8141   274
32.8241   299
32.8341   289
32.8441   272
32.8541   287
32.8641   294
32.8741   311
32.8841   252
32.8941   272
32.9041   259
32.9141   284
32.9241   275
32.9341   281
32.9441   282
32.9541   274
32.9641   297
32.9741   293
32.9841   273
32.9941   259
33.0041   262
33.0141   268
33.0241   277
33.0341   282
33.0441   280
33.0541   269
33.0641   271
33.0741   258
33.0841   276
33.0941   262
33.1041   264
33.1141   247
33.1241   245
33.1341   295
33.1441   277
33.1541   279
33.1641   280
33.1741   277
33.1841   275
33.1941   256
33.2041   276
33.2141   282
33.2241   248
33.2341   253
33.2441   257
33.2541   317
33.2641   282
33.2741   258
33.2841   251
33.2941   273
33.3041   261
33.3141   255
33.3241   258
33.3341   241
33.3441   247
33.3541   281
33.3641   221
33.3741   277
33.3841   289
33.3941   259
33.4041   265
33.4141   259
33.4241   239
33.4341   253
33.4441   245
33.4541   258
33.4641   225
33.4741   235
33.4841   241
33.4941   247
33.5041   255
33.5141   255
33.5241   256
33.5341   247
33.5441   245
33.5541   236
33.5641   264
33.5741   249
33.5841   250
33.5941   262
33.6041   244
33.6141   255
33.6241   255
33.6341   242
33.6441   263
33.6541   262
33.6641   238
33.6741   254
33.6841   259
33.6941   247
33.7041   249
33.7141   229
33.7241   231
33.7341   229
33.7441   237
33.7541   230
33.7641   234
33.7741   238
33.7841   224
33.7941   234
33.8041   231
33.8141   231
33.8241   259
33.8341   241
33.8441   223
33.8541   240
33.8641   237
33.8741   253
33.8841   262
33.8941   260
33.9041   225
33.9141   237
33.9241   233
33.9341   226
33.9441   223
33.9541   209
33.9641   224
33.9741   236
33.9841   229
33.9941   258
34.0041   220
34.0141   211
34.0241   214
34.0341   216
34.0441   241
34.0541   205
34.0641   232
34.0741   197
34.0841   231
34.0941   221
34.1041   231
34.1141   216
34.1241   214
34.1341   196
34.1441   216
34.1541   237
34.1641   221
34.1741   226
34.1841   205
34.1941   220
34.2041   213
34.2141   224
34.2241   214
34.2341   213
34.2441   219
34.2541   219
34.2641   224
34.2741   218
34.2841   231
34.2941   201
34.3041   215
34.3141   239
34.3241   227
34.3341   220
34.3441   211
34.3541   199
34.3641   207
34.3741   208
34.3841   212
34.3941   223
34.4041   223
34.4141   211
34.4241   199
34.4341   207
34.4441   216
34.4541   215
34.4641   194
34.4741   198
34.4841   210
34.4941   196
34.5041   198
34.5141   213
34.5241   181
34.5341   187
34.5441   175
34.5541   207
34.5641   212
34.5741   217
34.5841   174
34.5941   165
34.6041   208
34.6141   230
34.6241   225
34.6341   209
34.6441   185
34.6541   209
34.6641   192
34.6741   209
34.6841   186
34.6941   189
34.7041   183
34.7141   212
34.7241   208
34.7341   195
34.7441   192
34.7541   205
34.7641   219
34.7741   193
34.7841   185
34.7941   197
34.8041   204
34.8141   223
34.8241   203
34.8341   210
34.8441   187
34.8541   194
34.8641   220
34.8741   185
34.8841   213
34.8941   180
34.9041   189
34.9141   208
34.9241   194
34.9341   170
34.9441   206
34.9541   185
34.9641   179
34.9741   181
34.9841   191
34.9941   185
35.0041   194
35.0141   199
35.0241   189
35.0341   183
35.0441   176
35.0541   196
35.0641   180
35.0741   191
35.0841   186
35.0941   195
35.1041   194
35.1141   173
35.1241   171
35.1341   166
35.1441   193
35.1541   192
35.1641   185
35.1741   171
35.1841   183
35.1941   170
35.2041   194
35.2141   184
35.2241   201
35.2341   167
35.2441   210
35.2541   167
35.2641   165
35.2741   182
35.2841   176
35.2941   170
35.3041   155
35.3141   165
35.3241   180
35.3341   171
35.3441   163
35.3541   166
35.3641   210
35.3741   188
35.3841   156
35.3941   195
35.4041   176
35.4141   156
35.4241   162
35.4341   188
35.4441   196
35.4541   174
35.4641   176
35.4741   171
35.4841   164
35.4941   169
35.5041   182
35.5141   164
35.5241   155
35.5341   182
35.5441   172
35.5541   172
35.5641   158
35.5741   150
35.5841   191
35.5941   175
35.6041   167
35.6141   164
35.6241   179
35.6341   163
35.6441   176
35.6541   162
35.6641   137
35.6741   146
35.6841   211
35.6941   161
35.7041   157
35.7141   166
35.7241   143
35.7341   155
35.7441   157
35.7541   166
35.7641   134
35.7741   150
35.7841   156
35.7941   152
35.8041   169
35.8141   166
35.8241   160
35.8341   178
35.8441   152
35.8541   149
35.8641   159
35.8741   162
35.8841   144
35.8941   151
35.9041   131
35.9141   144
35.9241   136
35.9341   160
35.9441   162
35.9541   136
35.9641   143
35.9741   138
35.9841   146
35.9941   141
36.0041   159
36.0141   146
36.0241   154
36.0341   127
36.0441   146
36.0541   145
36.0641   159
36.0741   171
36.0841   140
36.0941   175
36.1041   157
36.1141   156
36.1241   134
36.1341   149
36.1441   142
36.1541   142
36.1641   131
36.1741   143
36.1841   153
36.1941   143
36.2041   144
36.2141   141
36.2241   136
36.2341   156
36.2441   139
36.2541   122
36.2641   130
36.2741   137
36.2841   149
36.2941   128
36.3041   146
36.3141   140
36.3241   148
36.3341   157
36.3441   168
36.3541   129
36.3641   147
36.3741   142
36.3841   158
36.3941   132
36.4041   155
36.4141   133
36.4241   140
36.4341   140
36.4441   120
36.4541   141
36.4641   125
36.4741   151
36.4841   135
36.4941   140
36.5041   150
36.5141   130
36.5241   128
36.5341   136
36.5441   123
36.5541   151
36.5641   131
36.5741   132
36.5841   132
36.5941   136
36.6041   124
36.6141   139
36.6241   129
36.6341   126
36.6441   127
36.6541   142
36.6641   151
36.6741   137
36.6841   125
36.6941   135
36.7041   109
36.7141   131
36.7241   127
36.7341   137
36.7441   129
36.7541   129
36.7641   130
36.7741   133
36.7841   107
36.7941   114
36.8041   117
36.8141   124
36.8241   152
36.8341   125
36.8441   125
36.8541   107
36.8641   118
36.8741   118
36.8841   126
36.8941   118
36.9041   124
36.9141   136
36.9241   115
36.9341   106
36.9441   135
36.9541   112
36.9641   132
36.9741   120
36.9841   101
36.9941   100
37.0041   122
37.0141   125
37.0241   128
37.0341   133
37.0441   140
37.0541   117
37.0641   118
37.0741   109
37.0841   114
37.0941   126
37.1041   130
37.1141   123
37.1241   110
37.1341   112
37.1441   131
37.1541   101
37.1641   104
37.1741   120
37.1841   117
37.1941   120
37.2041   102
37.2141   125
37.2241   118
37.2341   116
37.2441   103
37.2541   113
37.2641   121
37.2741   132
37.2841   125
37.2941   124
37.3041   111
37.3141   108
37.3241   103
37.3341   109
37.3441   128
37.3541   101
37.3641   109
37.3741   117
37.3841   126
37.3941   114
37.4041   111
37.4141   108
37.4241   122
37.4341   119
37.4441   100
37.4541   114
37.4641   105
37.4741   105
37.4841    99
37.4941   125
37.5041   111
37.5141   107
37.5241   122
37.5341   108
37.5441   105
37.5541   100
37.5641   109
37.5741   114
37.5841   100
37.5941    99
37.6041   102
37.6141   101
37.6241    99
37.6341   106
37.6441   100
37.6541   124
37.6641   105
37.6741    87
37.6841   107
37.6941    93
37.7041   116
37.7141   100
37.7241   110
37.7341   110
37.7441    78
37.7541   109
37.7641   107
37.7741    83
37.7841   103
37.7941    94
37.8041    86
37.8141    80
37.8241    85
37.8341    97
37.8441   100
37.8541    98
37.8641    93
37.8741   107
37.8841    83
37.8941   102
37.9041    85
37.9141   101
37.9241    86
37.9341   103
37.9441    98
37.9541    82
37.9641    90
37.9741    90
37.9841    97
37.9941   102
38.0041   105
38.0141    91
38.0241   120
38.0341   104
38.0441    87
38.0541    88
38.0641    88
38.0741    79
38.0841    89
38.0941    96
38.1041    82
38.1141   106
38.1241    87
38.1341    85
38.1441    92
38.1541    93
38.1641   103
38.1741   115
38.1841   101
38.1941    86
38.2041    86
38.2141    82
38.2241    98
38.2341    90
38.2441    98
38.2541    78
38.2641    87
38.2741    84
38.2841    96
38.2941    71
38.3041    79
38.3141    91
38.3241    76
38.3341   102
38.3441    69
38.3541    74
38.3641    77
38.3741    73
38.3841    85
38.3941    64
38.4041    70
38.4141    80
38.4241    82
38.4341    84
38.4441    83
38.4541    88
38.4641    79
38.4741    93
38.4841    78
38.4941    68
38.5041    85
38.5141    80
38.5241    88
38.5341    81
38.5441    72
38.5541    70
38.5641    81
38.5741    80
38.5841    70
38.5941    64
38.6041    63
38.6141    84
38.6241    73
38.6341    70
38.6441    64
38.6541    74
38.6641    80
38.6741    95
38.6841    68
38.6941    79
38.7041    73
38.7141    69
38.7241    65
38.7341    64
38.7441    86
38.7541    71
38.7641    70
38.7741    98
38.7841    85
38.7941    79
38.8041    80
38.8141    81
38.8241    72
38.8341    70
38.8441    56
38.8541    74
38.8641    70
38.8741    83
38.8841    72
38.8941    76
38.9041    68
38.9141    80
38.9241    61
38.9341    69
38.9441    71
38.9541    72
38.9641    67
38.9741    54
38.9841    71
38.9941    67
39.0041    71
39.0141    47
39.0241    64
39.0341    58
39.0441    73
39.0541    71
39.0641    77
39.0741    60
39.0841    53
39.0941    68
39.1041    82
39.1141    66
39.1241    63
39.1341    73
39.1441    64
39.1541    69
39.1641    56
39.1741    53
39.1841    69
39.1941    65
39.2041    70
39.2141    57
39.2241    70
39.2341    62
39.2441    61
39.2541    61
39.2641    49
39.2741    59
39.2841    60
39.2941    52
39.3041    57
39.3141    59
39.3241    60
39.3341    63
39.3441    65
39.3541    78
39.3641    52
39.3741    73
39.3841    55
39.3941    60
39.4041    53
39.4141    51
39.4241    71
39.4341    57
39.4441    62
39.4541    62
39.4641    64
39.4741    58
39.4841    48
39.4941    62
39.5041    52
39.5141    72
39.5241    73
39.5341    53
39.5441    76
39.5541    69
39.5641    59
39.5741    68
39.5841    64
39.5941    52
39.6041    65
39.6141    60
39.6241    68
39.6341    66
39.6441    66
39.6541    64
39.6641    57
39.6741    45
39.6841    54
39.6941    57
39.7041    53
39.7141    63
39.7241    54
39.7341    54
39.7441    49
39.7541    61
39.7641    58
39.7741    55
39.7841    51
39.7941    68
39.8041    57
39.8141    59
39.8241    48
39.8341    51
39.8441    46
39.8541    51
39.8641    40
39.8741    53
39.8841    43
39.8941    41
39.9041    38
39.9141    49
39.9241    43
39.9341    51
39.9441    50
39.9541    58
39.9641    53
39.9741    45
39.9841    52
39.9941    55
