Bruker Nano GmbH Berlin, Germany
Esprit 1.9

Date: 4/1/2021 4:08:37 PM
Real time: 24931
Life time: 23336
Pulse density: 91969


Detector type: XFlash 430
Window type: Custom type
Detector thickness: 0.45
Si dead layer:0.029

Calibration, lin.: 10
Calibration, abs.: -955.9
Mn FWHM: 137.05
Fano factor: 0.121
Channels: 4096

Energy Counts
-0.9559     0
-0.9459     0
-0.9359     0
-0.9259     0
-0.9159     0
-0.9059     0
-0.8959     0
-0.8859     0
-0.8759     0
-0.8659     0
-0.8559     0
-0.8459     0
-0.8359     0
-0.8259     0
-0.8159     0
-0.8059     0
-0.7959     0
-0.7859     0
-0.7759     0
-0.7659     0
-0.7559     0
-0.7459     0
-0.7359     0
-0.7259     0
-0.7159     0
-0.7059     0
-0.6959     0
-0.6859     0
-0.6759     0
-0.6659     0
-0.6559     0
-0.6459     0
-0.6359     0
-0.6259     0
-0.6159     0
-0.6059     0
-0.5959     0
-0.5859     0
-0.5759     0
-0.5659     0
-0.5559     0
-0.5459     0
-0.5359     0
-0.5259     0
-0.5159     0
-0.5059     0
-0.4959     0
-0.4859     0
-0.4759     0
-0.4659     0
-0.4559     0
-0.4459     0
-0.4359     0
-0.4259     0
-0.4159     0
-0.4059     0
-0.3959     0
-0.3859     0
-0.3759     0
-0.3659     0
-0.3559     0
-0.3459     0
-0.3359     0
-0.3259     0
-0.3159     0
-0.3059     0
-0.2959     0
-0.2859     0
-0.2759     0
-0.2659     0
-0.2559     0
-0.2459     0
-0.2359     0
-0.2259     0
-0.2159     0
-0.2059     0
-0.1959     0
-0.1859     0
-0.1759     0
-0.1659     0
-0.1559     1
-0.1459     0
-0.1359     1
-0.1259     1
-0.1159     2
-0.1059     8
-0.0959    91
-0.0859   262
-0.0759   897
-0.0659  2573
-0.0559  6678
-0.0459 14753
-0.0359 27474
-0.0259 44507
-0.0159 61386
-0.0059 71593
 0.0041 71727
 0.0141 61774
 0.0241 45966
 0.0341 29188
 0.0441 15645
 0.0541  7164
 0.0641  2943
 0.0741  1069
 0.0841   330
 0.0941    93
 0.1041    35
 0.1141    17
 0.1241    11
 0.1341    10
 0.1441     9
 0.1541     4
 0.1641     4
 0.1741     1
 0.1841   239
 0.1941   464
 0.2041   392
 0.2141   392
 0.2241   400
 0.2341   377
 0.2441   399
 0.2541   398
 0.2641   394
 0.2741   359
 0.2841   402
 0.2941   418
 0.3041   404
 0.3141   430
 0.3241   406
 0.3341   378
 0.3441   383
 0.3541   372
 0.3641   345
 0.3741   354
 0.3841   359
 0.3941   392
 0.4041   391
 0.4141   383
 0.4241   358
 0.4341   354
 0.4441   343
 0.4541   335
 0.4641   371
 0.4741   383
 0.4841   342
 0.4941   353
 0.5041   343
 0.5141   355
 0.5241   347
 0.5341   336
 0.5441   348
 0.5541   347
 0.5641   336
 0.5741   328
 0.5841   294
 0.5941   288
 0.6041   305
 0.6141   316
 0.6241   310
 0.6341   314
 0.6441   299
 0.6541   292
 0.6641   308
 0.6741   305
 0.6841   307
 0.6941   303
 0.7041   286
 0.7141   292
 0.7241   317
 0.7341   322
 0.7441   296
 0.7541   288
 0.7641   301
 0.7741   297
 0.7841   299
 0.7941   290
 0.8041   286
 0.8141   288
 0.8241   277
 0.8341   274
 0.8441   264
 0.8541   288
 0.8641   301
 0.8741   288
 0.8841   282
 0.8941   276
 0.9041   267
 0.9141   269
 0.9241   284
 0.9341   272
 0.9441   255
 0.9541   265
 0.9641   261
 0.9741   256
 0.9841   256
 0.9941   272
 1.0041   266
 1.0141   264
 1.0241   247
 1.0341   258
 1.0441   260
 1.0541   261
 1.0641   263
 1.0741   266
 1.0841   275
 1.0941   281
 1.1041   248
 1.1141   241
 1.1241   257
 1.1341   262
 1.1441   252
 1.1541   261
 1.1641   239
 1.1741   268
 1.1841   257
 1.1941   234
 1.2041   257
 1.2141   245
 1.2241   240
 1.2341   263
 1.2441   225
 1.2541   247
 1.2641   220
 1.2741   206
 1.2841   224
 1.2941   223
 1.3041   236
 1.3141   242
 1.3241   227
 1.3341   230
 1.3441   241
 1.3541   230
 1.3641   247
 1.3741   250
 1.3841   226
 1.3941   246
 1.4041   244
 1.4141   252
 1.4241   214
 1.4341   220
 1.4441   236
 1.4541   252
 1.4641   252
 1.4741   229
 1.4841   249
 1.4941   243
 1.5041   243
 1.5141   249
 1.5241   261
 1.5341   234
 1.5441   234
 1.5541   223
 1.5641   200
 1.5741   236
 1.5841   226
 1.5941   195
 1.6041   202
 1.6141   224
 1.6241   212
 1.6341   239
 1.6441   243
 1.6541   294
 1.6641   358
 1.6741   388
 1.6841   472
 1.6941   609
 1.7041   702
 1.7141   792
 1.7241   880
 1.7341   844
 1.7441   882
 1.7541   816
 1.7641   719
 1.7741   623
 1.7841   588
 1.7941   445
 1.8041   407
 1.8141   361
 1.8241   306
 1.8341   288
 1.8441   278
 1.8541   280
 1.8641   267
 1.8741   263
 1.8841   262
 1.8941   245
 1.9041   201
 1.9141   246
 1.9241   285
 1.9341   270
 1.9441   229
 1.9541   224
 1.9641   268
 1.9741   276
 1.9841   256
 1.9941   291
 2.0041   289
 2.0141   298
 2.0241   295
 2.0341   298
 2.0441   237
 2.0541   243
 2.0641   224
 2.0741   216
 2.0841   243
 2.0941   228
 2.1041   211
 2.1141   216
 2.1241   228
 2.1341   233
 2.1441   199
 2.1541   194
 2.1641   223
 2.1741   220
 2.1841   233
 2.1941   209
 2.2041   193
 2.2141   214
 2.2241   212
 2.2341   200
 2.2441   203
 2.2541   214
 2.2641   226
 2.2741   196
 2.2841   192
 2.2941   194
 2.3041   213
 2.3141   226
 2.3241   212
 2.3341   195
 2.3441   194
 2.3541   192
 2.3641   171
 2.3741   195
 2.3841   201
 2.3941   206
 2.4041   190
 2.4141   219
 2.4241   188
 2.4341   173
 2.4441   200
 2.4541   219
 2.4641   180
 2.4741   175
 2.4841   191
 2.4941   170
 2.5041   209
 2.5141   200
 2.5241   185
 2.5341   197
 2.5441   198
 2.5541   191
 2.5641   189
 2.5741   188
 2.5841   200
 2.5941   166
 2.6041   157
 2.6141   164
 2.6241   168
 2.6341   196
 2.6441   179
 2.6541   190
 2.6641   198
 2.6741   155
 2.6841   168
 2.6941   159
 2.7041   168
 2.7141   164
 2.7241   154
 2.7341   180
 2.7441   163
 2.7541   168
 2.7641   150
 2.7741   171
 2.7841   167
 2.7941   179
 2.8041   175
 2.8141   193
 2.8241   176
 2.8341   186
 2.8441   185
 2.8541   187
 2.8641   180
 2.8741   161
 2.8841   174
 2.8941   153
 2.9041   177
 2.9141   168
 2.9241   171
 2.9341   168
 2.9441   168
 2.9541   159
 2.9641   149
 2.9741   158
 2.9841   195
 2.9941   162
 3.0041   173
 3.0141   140
 3.0241   191
 3.0341   155
 3.0441   139
 3.0541   166
 3.0641   184
 3.0741   146
 3.0841   139
 3.0941   157
 3.1041   151
 3.1141   136
 3.1241   151
 3.1341   140
 3.1441   138
 3.1541   123
 3.1641   146
 3.1741   170
 3.1841   176
 3.1941   166
 3.2041   150
 3.2141   148
 3.2241   172
 3.2341   163
 3.2441   198
 3.2541   212
 3.2641   214
 3.2741   244
 3.2841   277
 3.2941   270
 3.3041   300
 3.3141   321
 3.3241   320
 3.3341   283
 3.3441   274
 3.3541   242
 3.3641   200
 3.3741   202
 3.3841   200
 3.3941   147
 3.4041   158
 3.4141   154
 3.4241   147
 3.4341   132
 3.4441   118
 3.4541   139
 3.4641   166
 3.4741   153
 3.4841   161
 3.4941   153
 3.5041   153
 3.5141   200
 3.5241   208
 3.5341   244
 3.5441   310
 3.5541   410
 3.5641   518
 3.5741   742
 3.5841  1066
 3.5941  1508
 3.6041  2011
 3.6141  2855
 3.6241  3716
 3.6341  4671
 3.6441  5741
 3.6541  6837
 3.6641  7570
 3.6741  8278
 3.6841  8794
 3.6941  8773
 3.7041  8518
 3.7141  7725
 3.7241  6849
 3.7341  5859
 3.7441  4724
 3.7541  3769
 3.7641  2753
 3.7741  2046
 3.7841  1430
 3.7941   970
 3.8041   687
 3.8141   455
 3.8241   341
 3.8341   259
 3.8441   236
 3.8541   191
 3.8641   207
 3.8741   241
 3.8841   262
 3.8941   291
 3.9041   338
 3.9141   469
 3.9241   538
 3.9341   673
 3.9441   843
 3.9541  1055
 3.9641  1258
 3.9741  1430
 3.9841  1600
 3.9941  1684
 4.0041  1802
 4.0141  1774
 4.0241  1784
 4.0341  1673
 4.0441  1469
 4.0541  1276
 4.0641  1096
 4.0741   905
 4.0841   718
 4.0941   543
 4.1041   442
 4.1141   319
 4.1241   258
 4.1341   191
 4.1441   178
 4.1541   128
 4.1641   126
 4.1741   118
 4.1841    86
 4.1941   115
 4.2041    98
 4.2141    83
 4.2241   114
 4.2341   105
 4.2441   100
 4.2541    87
 4.2641   106
 4.2741    91
 4.2841    93
 4.2941    92
 4.3041    94
 4.3141    97
 4.3241    90
 4.3341    85
 4.3441    99
 4.3541   106
 4.3641   108
 4.3741   119
 4.3841   124
 4.3941   131
 4.4041   149
 4.4141   148
 4.4241   183
 4.4341   188
 4.4441   235
 4.4541   249
 4.4641   278
 4.4741   298
 4.4841   337
 4.4941   357
 4.5041   380
 4.5141   352
 4.5241   327
 4.5341   300
 4.5441   299
 4.5541   260
 4.5641   214
 4.5741   180
 4.5841   203
 4.5941   168
 4.6041   160
 4.6141   128
 4.6241   135
 4.6341   127
 4.6441   125
 4.6541   110
 4.6641   121
 4.6741   105
 4.6841    89
 4.6941   112
 4.7041   119
 4.7141   106
 4.7241    95
 4.7341    88
 4.7441   103
 4.7541   110
 4.7641    85
 4.7741   114
 4.7841   117
 4.7941   109
 4.8041   124
 4.8141   112
 4.8241   114
 4.8341   141
 4.8441   134
 4.8541   127
 4.8641   142
 4.8741   127
 4.8841   165
 4.8941   147
 4.9041   177
 4.9141   154
 4.9241   155
 4.9341   164
 4.9441   153
 4.9541   156
 4.9641   150
 4.9741   152
 4.9841   147
 4.9941   134
 5.0041   122
 5.0141   136
 5.0241   119
 5.0341   101
 5.0441   116
 5.0541   115
 5.0641   115
 5.0741   108
 5.0841   102
 5.0941   107
 5.1041   111
 5.1141   106
 5.1241   109
 5.1341   106
 5.1441   106
 5.1541   106
 5.1641   108
 5.1741   103
 5.1841   123
 5.1941   109
 5.2041   121
 5.2141   119
 5.2241    97
 5.2341    91
 5.2441   116
 5.2541    94
 5.2641   113
 5.2741    95
 5.2841   109
 5.2941   103
 5.3041   133
 5.3141   122
 5.3241   142
 5.3341   128
 5.3441   141
 5.3541   152
 5.3641   155
 5.3741   175
 5.3841   206
 5.3941   205
 5.4041   204
 5.4141   231
 5.4241   217
 5.4341   184
 5.4441   172
 5.4541   167
 5.4641   146
 5.4741   146
 5.4841   128
 5.4941   150
 5.5041   124
 5.5141   126
 5.5241   125
 5.5341   126
 5.5441   121
 5.5541   144
 5.5641   119
 5.5741   131
 5.5841   128
 5.5941   106
 5.6041   120
 5.6141    97
 5.6241    89
 5.6341   107
 5.6441   113
 5.6541   115
 5.6641   113
 5.6741   131
 5.6841   121
 5.6941   121
 5.7041   125
 5.7141   123
 5.7241   134
 5.7341   117
 5.7441   114
 5.7541   141
 5.7641   145
 5.7741   139
 5.7841   189
 5.7941   188
 5.8041   216
 5.8141   212
 5.8241   232
 5.8341   275
 5.8441   275
 5.8541   321
 5.8641   371
 5.8741   364
 5.8841   368
 5.8941   384
 5.9041   334
 5.9141   376
 5.9241   321
 5.9341   303
 5.9441   284
 5.9541   290
 5.9641   256
 5.9741   252
 5.9841   232
 5.9941   187
 6.0041   186
 6.0141   171
 6.0241   165
 6.0341   156
 6.0441   137
 6.0541   139
 6.0641   133
 6.0741   141
 6.0841   135
 6.0941   132
 6.1041   147
 6.1141   140
 6.1241   149
 6.1341   163
 6.1441   146
 6.1541   180
 6.1641   192
 6.1741   200
 6.1841   212
 6.1941   211
 6.2041   235
 6.2141   321
 6.2241   415
 6.2341   524
 6.2441   722
 6.2541   981
 6.2641  1313
 6.2741  1779
 6.2841  2415
 6.2941  3129
 6.3041  4048
 6.3141  4997
 6.3241  6287
 6.3341  7438
 6.3441  8637
 6.3541  9880
 6.3641 10878
 6.3741 11748
 6.3841 12475
 6.3941 12647
 6.4041 12711
 6.4141 12424
 6.4241 11591
 6.4341 10704
 6.4441  9487
 6.4541  8106
 6.4641  6979
 6.4741  5829
 6.4841  4674
 6.4941  3709
 6.5041  2706
 6.5141  2058
 6.5241  1505
 6.5341  1053
 6.5441   803
 6.5541   589
 6.5641   458
 6.5741   341
 6.5841   298
 6.5941   242
 6.6041   223
 6.6141   182
 6.6241   184
 6.6341   180
 6.6441   188
 6.6541   175
 6.6641   171
 6.6741   170
 6.6841   152
 6.6941   173
 6.7041   169
 6.7141   175
 6.7241   177
 6.7341   170
 6.7441   180
 6.7541   191
 6.7641   211
 6.7741   186
 6.7841   200
 6.7941   190
 6.8041   199
 6.8141   204
 6.8241   212
 6.8341   236
 6.8441   236
 6.8541   240
 6.8641   247
 6.8741   288
 6.8841   288
 6.8941   303
 6.9041   344
 6.9141   472
 6.9241   523
 6.9341   631
 6.9441   699
 6.9541   836
 6.9641  1012
 6.9741  1182
 6.9841  1429
 6.9941  1531
 7.0041  1754
 7.0141  1853
 7.0241  2071
 7.0341  2242
 7.0441  2245
 7.0541  2309
 7.0641  2207
 7.0741  2264
 7.0841  2085
 7.0941  1896
 7.1041  1728
 7.1141  1561
 7.1241  1293
 7.1341  1160
 7.1441  1015
 7.1541   781
 7.1641   730
 7.1741   583
 7.1841   472
 7.1941   435
 7.2041   344
 7.2141   346
 7.2241   303
 7.2341   275
 7.2441   257
 7.2541   250
 7.2641   273
 7.2741   267
 7.2841   265
 7.2941   270
 7.3041   314
 7.3141   314
 7.3241   318
 7.3341   315
 7.3441   343
 7.3541   324
 7.3641   338
 7.3741   354
 7.3841   351
 7.3941   411
 7.4041   404
 7.4141   440
 7.4241   471
 7.4341   431
 7.4441   406
 7.4541   462
 7.4641   456
 7.4741   416
 7.4841   384
 7.4941   384
 7.5041   381
 7.5141   370
 7.5241   327
 7.5341   381
 7.5441   330
 7.5541   302
 7.5641   301
 7.5741   275
 7.5841   268
 7.5941   271
 7.6041   255
 7.6141   242
 7.6241   237
 7.6341   274
 7.6441   267
 7.6541   255
 7.6641   281
 7.6741   255
 7.6841   256
 7.6941   259
 7.7041   266
 7.7141   265
 7.7241   282
 7.7341   283
 7.7441   282
 7.7541   288
 7.7641   303
 7.7741   297
 7.7841   289
 7.7941   307
 7.8041   330
 7.8141   316
 7.8241   296
 7.8341   347
 7.8441   339
 7.8541   403
 7.8641   382
 7.8741   371
 7.8841   399
 7.8941   415
 7.9041   434
 7.9141   439
 7.9241   452
 7.9341   487
 7.9441   472
 7.9541   555
 7.9641   564
 7.9741   579
 7.9841   655
 7.9941   663
 8.0041   704
 8.0141   759
 8.0241   875
 8.0341   933
 8.0441  1021
 8.0541   982
 8.0641  1122
 8.0741  1207
 8.0841  1243
 8.0941  1438
 8.1041  1448
 8.1141  1452
 8.1241  1516
 8.1341  1636
 8.1441  1636
 8.1541  1696
 8.1641  1665
 8.1741  1767
 8.1841  1808
 8.1941  1732
 8.2041  1754
 8.2141  1899
 8.2241  1796
 8.2341  1895
 8.2441  1931
 8.2541  1961
 8.2641  2104
 8.2741  2099
 8.2841  2301
 8.2941  2419
 8.3041  2720
 8.3141  2899
 8.3241  3044
 8.3341  3213
 8.3441  3420
 8.3541  3611
 8.3641  3719
 8.3741  3885
 8.3841  3894
 8.3941  3886
 8.4041  3842
 8.4141  3676
 8.4241  3460
 8.4341  3126
 8.4441  2948
 8.4541  2606
 8.4641  2336
 8.4741  2078
 8.4841  1751
 8.4941  1491
 8.5041  1293
 8.5141  1074
 8.5241   910
 8.5341   807
 8.5441   700
 8.5541   631
 8.5641   576
 8.5741   532
 8.5841   517
 8.5941   514
 8.6041   482
 8.6141   489
 8.6241   458
 8.6341   503
 8.6441   480
 8.6541   481
 8.6641   454
 8.6741   479
 8.6841   481
 8.6941   487
 8.7041   455
 8.7141   494
 8.7241   456
 8.7341   425
 8.7441   422
 8.7541   381
 8.7641   416
 8.7741   424
 8.7841   396
 8.7941   441
 8.8041   408
 8.8141   392
 8.8241   394
 8.8341   400
 8.8441   414
 8.8541   386
 8.8641   399
 8.8741   380
 8.8841   406
 8.8941   386
 8.9041   436
 8.9141   391
 8.9241   403
 8.9341   423
 8.9441   424
 8.9541   433
 8.9641   437
 8.9741   481
 8.9841   442
 8.9941   447
 9.0041   456
 9.0141   498
 9.0241   478
 9.0341   555
 9.0441   530
 9.0541   536
 9.0641   564
 9.0741   526
 9.0841   570
 9.0941   585
 9.1041   598
 9.1141   653
 9.1241   640
 9.1341   665
 9.1441   709
 9.1541   735
 9.1641   768
 9.1741   788
 9.1841   827
 9.1941   873
 9.2041   868
 9.2141   953
 9.2241   957
 9.2341  1061
 9.2441  1096
 9.2541  1086
 9.2641  1174
 9.2741  1233
 9.2841  1241
 9.2941  1322
 9.3041  1400
 9.3141  1428
 9.3241  1481
 9.3341  1520
 9.3441  1611
 9.3541  1647
 9.3641  1603
 9.3741  1665
 9.3841  1743
 9.3941  1677
 9.4041  1764
 9.4141  1729
 9.4241  1807
 9.4341  1879
 9.4441  1934
 9.4541  1835
 9.4641  1898
 9.4741  1923
 9.4841  1921
 9.4941  1985
 9.5041  2001
 9.5141  2042
 9.5241  2107
 9.5341  2152
 9.5441  2346
 9.5541  2414
 9.5641  2510
 9.5741  2691
 9.5841  2901
 9.5941  3040
 9.6041  3193
 9.6141  3263
 9.6241  3500
 9.6341  3516
 9.6441  3625
 9.6541  3683
 9.6641  3905
 9.6741  3720
 9.6841  3702
 9.6941  3566
 9.7041  3452
 9.7141  3314
 9.7241  3144
 9.7341  2925
 9.7441  2644
 9.7541  2474
 9.7641  2305
 9.7741  2135
 9.7841  1947
 9.7941  1846
 9.8041  1712
 9.8141  1643
 9.8241  1559
 9.8341  1581
 9.8441  1536
 9.8541  1492
 9.8641  1475
 9.8741  1523
 9.8841  1601
 9.8941  1619
 9.9041  1675
 9.9141  1682
 9.9241  1656
 9.9341  1677
 9.9441  1719
 9.9541  1718
 9.9641  1659
 9.9741  1674
 9.9841  1593
 9.9941  1525
10.0041  1423
10.0141  1376
10.0241  1160
10.0341  1128
10.0441  1076
10.0541   931
10.0641   852
10.0741   749
10.0841   652
10.0941   584
10.1041   514
10.1141   472
10.1241   445
10.1341   441
10.1441   389
10.1541   377
10.1641   344
10.1741   360
10.1841   330
10.1941   292
10.2041   292
10.2141   279
10.2241   272
10.2341   261
10.2441   262
10.2541   245
10.2641   253
10.2741   243
10.2841   227
10.2941   245
10.3041   256
10.3141   253
10.3241   242
10.3341   230
10.3441   212
10.3541   231
10.3641   232
10.3741   225
10.3841   211
10.3941   235
10.4041   258
10.4141   254
10.4241   214
10.4341   215
10.4441   233
10.4541   221
10.4641   202
10.4741   246
10.4841   259
10.4941   250
10.5041   233
10.5141   236
10.5241   249
10.5341   234
10.5441   232
10.5541   248
10.5641   251
10.5741   267
10.5841   260
10.5941   268
10.6041   268
10.6141   262
10.6241   259
10.6341   282
10.6441   262
10.6541   268
10.6641   255
10.6741   246
10.6841   267
10.6941   278
10.7041   282
10.7141   287
10.7241   293
10.7341   298
10.7441   320
10.7541   312
10.7641   338
10.7741   328
10.7841   318
10.7941   334
10.8041   311
10.8141   318
10.8241   327
10.8341   360
10.8441   363
10.8541   361
10.8641   339
10.8741   371
10.8841   382
10.8941   392
10.9041   375
10.9141   395
10.9241   370
10.9341   370
10.9441   403
10.9541   382
10.9641   394
10.9741   380
10.9841   367
10.9941   351
11.0041   381
11.0141   381
11.0241   367
11.0341   370
11.0441   368
11.0541   357
11.0641   382
11.0741   353
11.0841   345
11.0941   344
11.1041   349
11.1141   362
11.1241   340
11.1341   341
11.1441   351
11.1541   351
11.1641   377
11.1741   391
11.1841   419
11.1941   449
11.2041   478
11.2141   478
11.2241   501
11.2341   512
11.2441   544
11.2541   564
11.2641   583
11.2741   562
11.2841   564
11.2941   557
11.3041   553
11.3141   502
11.3241   500
11.3341   515
11.3441   458
11.3541   451
11.3641   427
11.3741   405
11.3841   388
11.3941   372
11.4041   363
11.4141   335
11.4241   339
11.4341   334
11.4441   309
11.4541   295
11.4641   268
11.4741   270
11.4841   269
11.4941   261
11.5041   256
11.5141   252
11.5241   274
11.5341   312
11.5441   280
11.5541   279
11.5641   287
11.5741   309
11.5841   312
11.5941   306
11.6041   311
11.6141   311
11.6241   293
11.6341   297
11.6441   313
11.6541   279
11.6641   286
11.6741   287
11.6841   294
11.6941   275
11.7041   262
11.7141   274
11.7241   281
11.7341   258
11.7441   274
11.7541   274
11.7641   261
11.7741   260
11.7841   264
11.7941   268
11.8041   278
11.8141   293
11.8241   269
11.8341   255
11.8441   260
11.8541   270
11.8641   287
11.8741   305
11.8841   315
11.8941   318
11.9041   302
11.9141   278
11.9241   289
11.9341   292
11.9441   290
11.9541   314
11.9641   317
11.9741   285
11.9841   274
11.9941   254
12.0041   256
12.0141   253
12.0241   249
12.0341   247
12.0441   252
12.0541   236
12.0641   215
12.0741   222
12.0841   235
12.0941   207
12.1041   207
12.1141   217
12.1241   212
12.1341   217
12.1441   208
12.1541   201
12.1641   207
12.1741   209
12.1841   216
12.1941   227
12.2041   227
12.2141   206
12.2241   195
12.2341   218
12.2441   224
12.2541   203
12.2641   193
12.2741   208
12.2841   202
12.2941   197
12.3041   194
12.3141   188
12.3241   186
12.3341   199
12.3441   208
12.3541   204
12.3641   209
12.3741   200
12.3841   208
12.3941   211
12.4041   196
12.4141   193
12.4241   213
12.4341   219
12.4441   211
12.4541   196
12.4641   202
12.4741   210
12.4841   205
12.4941   223
12.5041   233
12.5141   212
12.5241   198
12.5341   204
12.5441   231
12.5541   224
12.5641   225
12.5741   231
12.5841   226
12.5941   223
12.6041   230
12.6141   234
12.6241   227
12.6341   217
12.6441   205
12.6541   205
12.6641   224
12.6741   237
12.6841   239
12.6941   228
12.7041   237
12.7141   247
12.7241   225
12.7341   222
12.7441   230
12.7541   233
12.7641   239
12.7741   244
12.7841   236
12.7941   237
12.8041   226
12.8141   238
12.8241   234
12.8341   214
12.8441   230
12.8541   238
12.8641   224
12.8741   237
12.8841   247
12.8941   229
12.9041   237
12.9141   232
12.9241   237
12.9341   248
12.9441   248
12.9541   242
12.9641   254
12.9741   247
12.9841   227
12.9941   233
13.0041   237
13.0141   255
13.0241   264
13.0341   253
13.0441   253
13.0541   262
13.0641   246
13.0741   245
13.0841   255
13.0941   249
13.1041   259
13.1141   267
13.1241   247
13.1341   265
13.1441   257
13.1541   256
13.1641   268
13.1741   254
13.1841   259
13.1941   269
13.2041   253
13.2141   272
13.2241   297
13.2341   261
13.2441   263
13.2541   307
13.2641   320
13.2741   329
13.2841   332
13.2941   340
13.3041   350
13.3141   341
13.3241   330
13.3341   371
13.3441   375
13.3541   355
13.3641   356
13.3741   354
13.3841   361
13.3941   350
13.4041   352
13.4141   352
13.4241   372
13.4341   373
13.4441   353
13.4541   347
13.4641   323
13.4741   309
13.4841   325
13.4941   319
13.5041   300
13.5141   299
13.5241   294
13.5341   284
13.5441   288
13.5541   292
13.5641   290
13.5741   285
13.5841   289
13.5941   278
13.6041   271
13.6141   301
13.6241   310
13.6341   291
13.6441   286
13.6541   274
13.6641   261
13.6741   270
13.6841   281
13.6941   277
13.7041   284
13.7141   282
13.7241   291
13.7341   299
13.7441   288
13.7541   304
13.7641   297
13.7741   283
13.7841   277
13.7941   284
13.8041   301
13.8141   297
13.8241   292
13.8341   297
13.8441   282
13.8541   275
13.8641   307
13.8741   320
13.8841   304
13.8941   318
13.9041   339
13.9141   334
13.9241   342
13.9341   351
13.9441   350
13.9541   352
13.9641   363
13.9741   388
13.9841   392
13.9941   393
14.0041   423
14.0141   457
14.0241   473
14.0341   499
14.0441   537
14.0541   580
14.0641   591
14.0741   578
14.0841   631
14.0941   670
14.1041   674
14.1141   701
14.1241   717
14.1341   706
14.1441   707
14.1541   724
14.1641   718
14.1741   697
14.1841   658
14.1941   611
14.2041   624
14.2141   638
14.2241   582
14.2341   533
14.2441   544
14.2541   527
14.2641   495
14.2741   468
14.2841   436
14.2941   412
14.3041   395
14.3141   395
14.3241   405
14.3341   374
14.3441   343
14.3541   350
14.3641   344
14.3741   351
14.3841   352
14.3941   360
14.4041   356
14.4141   346
14.4241   330
14.4341   335
14.4441   318
14.4541   315
14.4641   332
14.4741   341
14.4841   342
14.4941   337
14.5041   338
14.5141   345
14.5241   335
14.5341   330
14.5441   332
14.5541   334
14.5641   343
14.5741   361
14.5841   363
14.5941   349
14.6041   350
14.6141   341
14.6241   345
14.6341   357
14.6441   360
14.6541   353
14.6641   347
14.6741   350
14.6841   351
14.6941   357
14.7041   346
14.7141   354
14.7241   350
14.7341   356
14.7441   376
14.7541   370
14.7641   379
14.7741   379
14.7841   373
14.7941   375
14.8041   361
14.8141   361
14.8241   373
14.8341   395
14.8441   399
14.8541   372
14.8641   367
14.8741   396
14.8841   410
14.8941   412
14.9041   401
14.9141   412
14.9241   417
14.9341   396
14.9441   412
14.9541   411
14.9641   399
14.9741   402
14.9841   414
14.9941   402
15.0041   385
15.0141   419
15.0241   411
15.0341   393
15.0441   401
15.0541   395
15.0641   402
15.0741   378
15.0841   365
15.0941   391
15.1041   398
15.1141   387
15.1241   375
15.1341   388
15.1441   397
15.1541   407
15.1641   412
15.1741   390
15.1841   414
15.1941   423
15.2041   393
15.2141   381
15.2241   384
15.2341   388
15.2441   388
15.2541   377
15.2641   378
15.2741   405
15.2841   405
15.2941   378
15.3041   396
15.3141   414
15.3241   384
15.3341   398
15.3441   434
15.3541   396
15.3641   390
15.3741   418
15.3841   433
15.3941   425
15.4041   417
15.4141   422
15.4241   451
15.4341   427
15.4441   406
15.4541   436
15.4641   420
15.4741   419
15.4841   444
15.4941   451
15.5041   475
15.5141   451
15.5241   459
15.5341   519
15.5441   514
15.5541   518
15.5641   549
15.5741   535
15.5841   558
15.5941   605
15.6041   627
15.6141   630
15.6241   669
15.6341   680
15.6441   734
15.6541   783
15.6641   791
15.6741   852
15.6841   895
15.6941   893
15.7041   923
15.7141   985
15.7241  1008
15.7341   978
15.7441   979
15.7541   978
15.7641   990
15.7741   996
15.7841   981
15.7941   982
15.8041   937
15.8141   942
15.8241   907
15.8341   869
15.8441   851
15.8541   818
15.8641   775
15.8741   758
15.8841   715
15.8941   673
15.9041   635
15.9141   607
15.9241   599
15.9341   556
15.9441   519
15.9541   542
15.9641   536
15.9741   486
15.9841   477
15.9941   480
16.0041   504
16.0141   506
16.0241   509
16.0341   499
16.0441   500
16.0541   479
16.0641   484
16.0741   476
16.0841   492
16.0941   492
16.1041   493
16.1141   497
16.1241   468
16.1341   466
16.1441   462
16.1541   479
16.1641   487
16.1741   500
16.1841   486
16.1941   492
16.2041   497
16.2141   514
16.2241   510
16.2341   484
16.2441   492
16.2541   480
16.2641   477
16.2741   473
16.2841   474
16.2941   474
16.3041   487
16.3141   479
16.3241   501
16.3341   504
16.3441   491
16.3541   501
16.3641   512
16.3741   535
16.3841   504
16.3941   468
16.4041   471
16.4141   479
16.4241   512
16.4341   530
16.4441   535
16.4541   512
16.4641   488
16.4741   517
16.4841   543
16.4941   504
16.5041   502
16.5141   509
16.5241   487
16.5341   479
16.5441   518
16.5541   512
16.5641   509
16.5741   544
16.5841   518
16.5941   519
16.6041   517
16.6141   525
16.6241   527
16.6341   525
16.6441   511
16.6541   534
16.6641   528
16.6741   556
16.6841   553
16.6941   543
16.7041   502
16.7141   485
16.7241   521
16.7341   565
16.7441   536
16.7541   511
16.7641   531
16.7741   528
16.7841   530
16.7941   546
16.8041   538
16.8141   536
16.8241   540
16.8341   502
16.8441   535
16.8541   538
16.8641   515
16.8741   528
16.8841   538
16.8941   568
16.9041   549
16.9141   550
16.9241   548
16.9341   530
16.9441   544
16.9541   535
16.9641   538
16.9741   568
16.9841   559
16.9941   565
17.0041   546
17.0141   543
17.0241   538
17.0341   541
17.0441   564
17.0541   576
17.0641   575
17.0741   574
17.0841   551
17.0941   544
17.1041   578
17.1141   577
17.1241   546
17.1341   517
17.1441   546
17.1541   579
17.1641   568
17.1741   610
17.1841   588
17.1941   565
17.2041   601
17.2141   532
17.2241   540
17.2341   599
17.2441   581
17.2541   579
17.2641   572
17.2741   592
17.2841   578
17.2941   548
17.3041   555
17.3141   584
17.3241   575
17.3341   572
17.3441   584
17.3541   579
17.3641   632
17.3741   631
17.3841   632
17.3941   606
17.4041   606
17.4141   591
17.4241   591
17.4341   584
17.4441   562
17.4541   633
17.4641   619
17.4741   611
17.4841   597
17.4941   622
17.5041   624
17.5141   640
17.5241   617
17.5341   636
17.5441   670
17.5541   662
17.5641   654
17.5741   657
17.5841   674
17.5941   659
17.6041   646
17.6141   676
17.6241   665
17.6341   697
17.6441   693
17.6541   676
17.6641   689
17.6741   725
17.6841   746
17.6941   727
17.7041   688
17.7141   705
17.7241   715
17.7341   689
17.7441   679
17.7541   683
17.7641   702
17.7741   656
17.7841   631
17.7941   657
17.8041   678
17.8141   635
17.8241   640
17.8341   646
17.8441   623
17.8541   640
17.8641   688
17.8741   660
17.8841   649
17.8941   688
17.9041   643
17.9141   639
17.9241   650
17.9341   655
17.9441   629
17.9541   652
17.9641   652
17.9741   641
17.9841   621
17.9941   661
18.0041   658
18.0141   626
18.0241   632
18.0341   633
18.0441   648
18.0541   680
18.0641   639
18.0741   634
18.0841   629
18.0941   663
18.1041   639
18.1141   652
18.1241   655
18.1341   662
18.1441   645
18.1541   601
18.1641   610
18.1741   645
18.1841   620
18.1941   632
18.2041   628
18.2141   622
18.2241   671
18.2341   664
18.2441   632
18.2541   656
18.2641   652
18.2741   682
18.2841   724
18.2941   652
18.3041   659
18.3141   655
18.3241   634
18.3341   644
18.3441   675
18.3541   649
18.3641   632
18.3741   636
18.3841   651
18.3941   704
18.4041   663
18.4141   679
18.4241   645
18.4341   657
18.4441   649
18.4541   672
18.4641   697
18.4741   694
18.4841   677
18.4941   653
18.5041   642
18.5141   657
18.5241   666
18.5341   692
18.5441   643
18.5541   651
18.5641   687
18.5741   694
18.5841   717
18.5941   676
18.6041   645
18.6141   667
18.6241   700
18.6341   718
18.6441   691
18.6541   680
18.6641   721
18.6741   695
18.6841   649
18.6941   668
18.7041   664
18.7141   695
18.7241   714
18.7341   666
18.7441   733
18.7541   740
18.7641   701
18.7741   698
18.7841   690
18.7941   691
18.8041   659
18.8141   685
18.8241   689
18.8341   729
18.8441   692
18.8541   696
18.8641   708
18.8741   692
18.8841   708
18.8941   700
18.9041   704
18.9141   665
18.9241   691
18.9341   748
18.9441   706
18.9541   753
18.9641   720
18.9741   686
18.9841   708
18.9941   735
19.0041   704
19.0141   741
19.0241   735
19.0341   737
19.0441   760
19.0541   712
19.0641   704
19.0741   712
19.0841   730
19.0941   691
19.1041   722
19.1141   704
19.1241   730
19.1341   695
19.1441   682
19.1541   721
19.1641   720
19.1741   734
19.1841   744
19.1941   742
19.2041   736
19.2141   708
19.2241   718
19.2341   735
19.2441   698
19.2541   697
19.2641   705
19.2741   716
19.2841   680
19.2941   717
19.3041   740
19.3141   711
19.3241   686
19.3341   665
19.3441   736
19.3541   735
19.3641   737
19.3741   697
19.3841   731
19.3941   738
19.4041   728
19.4141   689
19.4241   715
19.4341   716
19.4441   714
19.4541   716
19.4641   696
19.4741   702
19.4841   749
19.4941   717
19.5041   774
19.5141   745
19.5241   745
19.5341   711
19.5441   753
19.5541   768
19.5641   735
19.5741   782
19.5841   764
19.5941   781
19.6041   678
19.6141   705
19.6241   793
19.6341   738
19.6441   699
19.6541   739
19.6641   736
19.6741   710
19.6841   698
19.6941   724
19.7041   760
19.7141   761
19.7241   721
19.7341   747
19.7441   715
19.7541   712
19.7641   751
19.7741   766
19.7841   768
19.7941   732
19.8041   726
19.8141   770
19.8241   752
19.8341   749
19.8441   750
19.8541   740
19.8641   741
19.8741   695
19.8841   737
19.8941   729
19.9041   749
19.9141   708
19.9241   734
19.9341   719
19.9441   718
19.9541   725
19.9641   756
19.9741   770
19.9841   752
19.9941   723
20.0041   756
20.0141   735
20.0241   745
20.0341   740
20.0441   763
20.0541   771
20.0641   763
20.0741   747
20.0841   721
20.0941   710
20.1041   720
20.1141   756
20.1241   741
20.1341   749
20.1441   736
20.1541   746
20.1641   750
20.1741   766
20.1841   758
20.1941   753
20.2041   771
20.2141   735
20.2241   741
20.2341   754
20.2441   734
20.2541   765
20.2641   781
20.2741   716
20.2841   725
20.2941   732
20.3041   785
20.3141   805
20.3241   783
20.3341   769
20.3441   768
20.3541   711
20.3641   782
20.3741   703
20.3841   728
20.3941   738
20.4041   759
20.4141   789
20.4241   743
20.4341   765
20.4441   728
20.4541   742
20.4641   791
20.4741   769
20.4841   799
20.4941   792
20.5041   752
20.5141   742
20.5241   805
20.5341   761
20.5441   734
20.5541   748
20.5641   726
20.5741   761
20.5841   757
20.5941   717
20.6041   767
20.6141   745
20.6241   718
20.6341   792
20.6441   818
20.6541   810
20.6641   760
20.6741   760
20.6841   761
20.6941   749
20.7041   765
20.7141   763
20.7241   759
20.7341   789
20.7441   773
20.7541   737
20.7641   767
20.7741   757
20.7841   784
20.7941   779
20.8041   782
20.8141   791
20.8241   796
20.8341   796
20.8441   826
20.8541   820
20.8641   845
20.8741   797
20.8841   845
20.8941   881
20.9041   912
20.9141   909
20.9241   943
20.9341   924
20.9441   937
20.9541   941
20.9641   959
20.9741   992
20.9841   993
20.9941  1075
21.0041  1022
21.0141  1055
21.0241  1012
21.0341  1091
21.0441  1060
21.0541  1105
21.0641  1088
21.0741  1155
21.0841  1104
21.0941  1111
21.1041  1145
21.1141  1132
21.1241  1144
21.1341  1177
21.1441  1171
21.1541  1164
21.1641  1159
21.1741  1128
21.1841  1161
21.1941  1099
21.2041  1077
21.2141  1085
21.2241  1073
21.2341  1068
21.2441  1018
21.2541  1049
21.2641  1014
21.2741   996
21.2841   966
21.2941   991
21.3041   908
21.3141   910
21.3241   892
21.3341   826
21.3441   849
21.3541   830
21.3641   869
21.3741   852
21.3841   751
21.3941   735
21.4041   818
21.4141   803
21.4241   795
21.4341   778
21.4441   788
21.4541   786
21.4641   805
21.4741   764
21.4841   808
21.4941   808
21.5041   808
21.5141   827
21.5241   732
21.5341   812
21.5441   823
21.5541   797
21.5641   778
21.5741   812
21.5841   782
21.5941   760
21.6041   772
21.6141   790
21.6241   773
21.6341   738
21.6441   743
21.6541   746
21.6641   759
21.6741   783
21.6841   795
21.6941   808
21.7041   754
21.7141   738
21.7241   769
21.7341   757
21.7441   769
21.7541   779
21.7641   800
21.7741   810
21.7841   754
21.7941   760
21.8041   797
21.8141   784
21.8241   773
21.8341   792
21.8441   806
21.8541   795
21.8641   746
21.8741   819
21.8841   773
21.8941   755
21.9041   779
21.9141   770
21.9241   762
21.9341   796
21.9441   800
21.9541   767
21.9641   748
21.9741   775
21.9841   764
21.9941   749
22.0041   808
22.0141   788
22.0241   755
22.0341   779
22.0441   752
22.0541   755
22.0641   735
22.0741   764
22.0841   765
22.0941   717
22.1041   789
22.1141   808
22.1241   764
22.1341   774
22.1441   808
22.1541   781
22.1641   785
22.1741   763
22.1841   824
22.1941   775
22.2041   786
22.2141   754
22.2241   771
22.2341   768
22.2441   752
22.2541   726
22.2641   761
22.2741   755
22.2841   777
22.2941   775
22.3041   787
22.3141   809
22.3241   732
22.3341   777
22.3441   769
22.3541   751
22.3641   764
22.3741   764
22.3841   779
22.3941   721
22.4041   733
22.4141   776
22.4241   772
22.4341   767
22.4441   753
22.4541   759
22.4641   750
22.4741   759
22.4841   753
22.4941   729
22.5041   797
22.5141   783
22.5241   720
22.5341   795
22.5441   720
22.5541   739
22.5641   774
22.5741   769
22.5841   781
22.5941   757
22.6041   814
22.6141   700
22.6241   771
22.6341   779
22.6441   758
22.6541   711
22.6641   802
22.6741   779
22.6841   775
22.6941   725
22.7041   794
22.7141   823
22.7241   779
22.7341   747
22.7441   799
22.7541   757
22.7641   740
22.7741   772
22.7841   702
22.7941   766
22.8041   764
22.8141   802
22.8241   713
22.8341   712
22.8441   749
22.8541   739
22.8641   733
22.8741   751
22.8841   791
22.8941   756
22.9041   673
22.9141   754
22.9241   724
22.9341   731
22.9441   777
22.9541   745
22.9641   718
22.9741   768
22.9841   754
22.9941   741
23.0041   754
23.0141   766
23.0241   757
23.0341   745
23.0441   704
23.0541   794
23.0641   764
23.0741   758
23.0841   751
23.0941   757
23.1041   732
23.1141   776
23.1241   757
23.1341   761
23.1441   783
23.1541   719
23.1641   792
23.1741   735
23.1841   762
23.1941   735
23.2041   710
23.2141   732
23.2241   743
23.2341   765
23.2441   764
23.2541   784
23.2641   755
23.2741   745
23.2841   745
23.2941   753
23.3041   759
23.3141   745
23.3241   745
23.3341   727
23.3441   733
23.3541   723
23.3641   748
23.3741   780
23.3841   725
23.3941   741
23.4041   751
23.4141   776
23.4241   731
23.4341   753
23.4441   728
23.4541   715
23.4641   745
23.4741   706
23.4841   784
23.4941   728
23.5041   755
23.5141   729
23.5241   755
23.5341   736
23.5441   683
23.5541   720
23.5641   791
23.5741   720
23.5841   780
23.5941   750
23.6041   696
23.6141   734
23.6241   728
23.6341   751
23.6441   777
23.6541   802
23.6641   705
23.6741   786
23.6841   800
23.6941   771
23.7041   793
23.7141   801
23.7241   767
23.7341   777
23.7441   799
23.7541   792
23.7641   821
23.7741   781
23.7841   832
23.7941   797
23.8041   783
23.8141   798
23.8241   801
23.8341   806
23.8441   757
23.8541   790
23.8641   751
23.8741   729
23.8841   759
23.8941   770
23.9041   770
23.9141   758
23.9241   755
23.9341   729
23.9441   725
23.9541   766
23.9641   702
23.9741   750
23.9841   704
23.9941   785
24.0041   751
24.0141   775
24.0241   715
24.0341   730
24.0441   771
24.0541   689
24.0641   734
24.0741   720
24.0841   764
24.0941   687
24.1041   718
24.1141   735
24.1241   707
24.1341   637
24.1441   718
24.1541   704
24.1641   765
24.1741   679
24.1841   695
24.1941   735
24.2041   709
24.2141   726
24.2241   677
24.2341   680
24.2441   779
24.2541   747
24.2641   695
24.2741   760
24.2841   719
24.2941   727
24.3041   743
24.3141   708
24.3241   722
24.3341   697
24.3441   726
24.3541   723
24.3641   741
24.3741   747
24.3841   685
24.3941   649
24.4041   716
24.4141   727
24.4241   716
24.4341   671
24.4441   683
24.4541   662
24.4641   683
24.4741   738
24.4841   743
24.4941   699
24.5041   715
24.5141   673
24.5241   707
24.5341   712
24.5441   679
24.5541   706
24.5641   693
24.5741   712
24.5841   685
24.5941   713
24.6041   701
24.6141   677
24.6241   697
24.6341   705
24.6441   697
24.6541   673
24.6641   729
24.6741   688
24.6841   690
24.6941   682
24.7041   709
24.7141   731
24.7241   679
24.7341   654
24.7441   678
24.7541   671
24.7641   676
24.7741   681
24.7841   709
24.7941   678
24.8041   666
24.8141   701
24.8241   723
24.8341   687
24.8441   668
24.8541   656
24.8641   667
24.8741   712
24.8841   732
24.8941   694
24.9041   684
24.9141   696
24.9241   675
24.9341   714
24.9441   640
24.9541   678
24.9641   664
24.9741   662
24.9841   651
24.9941   624
25.0041   649
25.0141   699
25.0241   700
25.0341   676
25.0441   659
25.0541   679
25.0641   651
25.0741   672
25.0841   750
25.0941   660
25.1041   697
25.1141   743
25.1241   666
25.1341   685
25.1441   694
25.1541   690
25.1641   653
25.1741   679
25.1841   656
25.1941   752
25.2041   660
25.2141   699
25.2241   697
25.2341   636
25.2441   685
25.2541   672
25.2641   685
25.2741   689
25.2841   659
25.2941   660
25.3041   684
25.3141   683
25.3241   696
25.3341   686
25.3441   643
25.3541   653
25.3641   650
25.3741   647
25.3841   677
25.3941   636
25.4041   666
25.4141   612
25.4241   630
25.4341   618
25.4441   662
25.4541   674
25.4641   620
25.4741   625
25.4841   637
25.4941   635
25.5041   653
25.5141   624
25.5241   689
25.5341   620
25.5441   653
25.5541   652
25.5641   580
25.5741   662
25.5841   650
25.5941   616
25.6041   683
25.6141   670
25.6241   631
25.6341   593
25.6441   636
25.6541   646
25.6641   660
25.6741   594
25.6841   635
25.6941   636
25.7041   642
25.7141   636
25.7241   609
25.7341   586
25.7441   612
25.7541   590
25.7641   630
25.7741   631
25.7841   655
25.7941   626
25.8041   627
25.8141   617
25.8241   590
25.8341   614
25.8441   601
25.8541   610
25.8641   627
25.8741   621
25.8841   657
25.8941   597
25.9041   633
25.9141   632
25.9241   606
25.9341   606
25.9441   612
25.9541   619
25.9641   598
25.9741   629
25.9841   637
25.9941   637
26.0041   653
26.0141   660
26.0241   584
26.0341   602
26.0441   630
26.0541   611
26.0641   594
26.0741   608
26.0841   604
26.0941   619
26.1041   625
26.1141   622
26.1241   610
26.1341   571
26.1441   601
26.1541   615
26.1641   614
26.1741   611
26.1841   607
26.1941   646
26.2041   612
26.2141   632
26.2241   605
26.2341   608
26.2441   595
26.2541   555
26.2641   621
26.2741   605
26.2841   590
26.2941   623
26.3041   559
26.3141   613
26.3241   668
26.3341   595
26.3441   602
26.3541   564
26.3641   584
26.3741   607
26.3841   589
26.3941   546
26.4041   627
26.4141   581
26.4241   600
26.4341   589
26.4441   584
26.4541   600
26.4641   578
26.4741   624
26.4841   565
26.4941   535
26.5041   595
26.5141   606
26.5241   596
26.5341   573
26.5441   578
26.5541   587
26.5641   584
26.5741   600
26.5841   572
26.5941   570
26.6041   588
26.6141   575
26.6241   588
26.6341   579
26.6441   581
26.6541   580
26.6641   562
26.6741   575
26.6841   581
26.6941   593
26.7041   562
26.7141   551
26.7241   580
26.7341   542
26.7441   570
26.7541   550
26.7641   563
26.7741   580
26.7841   549
26.7941   579
26.8041   570
26.8141   562
26.8241   597
26.8341   549
26.8441   556
26.8541   569
26.8641   595
26.8741   608
26.8841   543
26.8941   571
26.9041   619
26.9141   555
26.9241   587
26.9341   528
26.9441   604
26.9541   546
26.9641   563
26.9741   564
26.9841   561
26.9941   579
27.0041   568
27.0141   570
27.0241   539
27.0341   575
27.0441   565
27.0541   562
27.0641   559
27.0741   587
27.0841   549
27.0941   581
27.1041   579
27.1141   567
27.1241   517
27.1341   532
27.1441   539
27.1541   558
27.1641   567
27.1741   539
27.1841   547
27.1941   526
27.2041   540
27.2141   541
27.2241   578
27.2341   539
27.2441   535
27.2541   500
27.2641   546
27.2741   548
27.2841   538
27.2941   533
27.3041   545
27.3141   555
27.3241   527
27.3341   520
27.3441   512
27.3541   553
27.3641   523
27.3741   563
27.3841   564
27.3941   527
27.4041   537
27.4141   535
27.4241   536
27.4341   523
27.4441   555
27.4541   574
27.4641   592
27.4741   534
27.4841   534
27.4941   519
27.5041   516
27.5141   565
27.5241   532
27.5341   513
27.5441   538
27.5541   560
27.5641   546
27.5741   530
27.5841   532
27.5941   520
27.6041   521
27.6141   526
27.6241   510
27.6341   519
27.6441   566
27.6541   517
27.6641   527
27.6741   535
27.6841   546
27.6941   484
27.7041   469
27.7141   537
27.7241   541
27.7341   498
27.7441   519
27.7541   486
27.7641   520
27.7741   492
27.7841   489
27.7941   479
27.8041   481
27.8141   544
27.8241   517
27.8341   513
27.8441   516
27.8541   527
27.8641   504
27.8741   505
27.8841   493
27.8941   489
27.9041   500
27.9141   485
27.9241   495
27.9341   521
27.9441   505
27.9541   514
27.9641   486
27.9741   490
27.9841   478
27.9941   520
28.0041   518
28.0141   510
28.0241   485
28.0341   496
28.0441   528
28.0541   507
28.0641   494
28.0741   496
28.0841   498
28.0941   502
28.1041   450
28.1141   517
28.1241   489
28.1341   451
28.1441   532
28.1541   516
28.1641   507
28.1741   502
28.1841   467
28.1941   503
28.2041   486
28.2141   501
28.2241   468
28.2341   501
28.2441   467
28.2541   480
28.2641   487
28.2741   482
28.2841   472
28.2941   475
28.3041   447
28.3141   499
28.3241   472
28.3341   499
28.3441   499
28.3541   468
28.3641   479
28.3741   476
28.3841   486
28.3941   461
28.4041   482
28.4141   456
28.4241   449
28.4341   473
28.4441   470
28.4541   464
28.4641   451
28.4741   478
28.4841   482
28.4941   464
28.5041   465
28.5141   455
28.5241   461
28.5341   452
28.5441   460
28.5541   444
28.5641   474
28.5741   477
28.5841   430
28.5941   421
28.6041   449
28.6141   449
28.6241   487
28.6341   486
28.6441   479
28.6541   508
28.6641   449
28.6741   469
28.6841   473
28.6941   438
28.7041   440
28.7141   456
28.7241   483
28.7341   445
28.7441   437
28.7541   454
28.7641   460
28.7741   424
28.7841   431
28.7941   468
28.8041   441
28.8141   446
28.8241   487
28.8341   444
28.8441   461
28.8541   486
28.8641   427
28.8741   424
28.8841   443
28.8941   456
28.9041   464
28.9141   451
28.9241   479
28.9341   431
28.9441   466
28.9541   433
28.9641   424
28.9741   427
28.9841   444
28.9941   438
29.0041   433
29.0141   430
29.0241   461
29.0341   445
29.0441   423
29.0541   457
29.0641   413
29.0741   459
29.0841   434
29.0941   464
29.1041   468
29.1141   444
29.1241   434
29.1341   451
29.1441   458
29.1541   447
29.1641   455
29.1741   440
29.1841   426
29.1941   430
29.2041   468
29.2141   434
29.2241   423
29.2341   446
29.2441   421
29.2541   424
29.2641   447
29.2741   460
29.2841   478
29.2941   424
29.3041   439
29.3141   457
29.3241   443
29.3341   401
29.3441   401
29.3541   415
29.3641   408
29.3741   403
29.3841   406
29.3941   466
29.4041   435
29.4141   427
29.4241   421
29.4341   409
29.4441   393
29.4541   396
29.4641   412
29.4741   385
29.4841   411
29.4941   412
29.5041   415
29.5141   374
29.5241   414
29.5341   442
29.5441   407
29.5541   414
29.5641   397
29.5741   427
29.5841   405
29.5941   399
29.6041   394
29.6141   413
29.6241   388
29.6341   394
29.6441   408
29.6541   386
29.6641   403
29.6741   378
29.6841   385
29.6941   425
29.7041   393
29.7141   392
29.7241   399
29.7341   416
29.7441   409
29.7541   397
29.7641   403
29.7741   373
29.7841   388
29.7941   398
29.8041   394
29.8141   391
29.8241   382
29.8341   414
29.8441   376
29.8541   408
29.8641   405
29.8741   405
29.8841   394
29.8941   386
29.9041   411
29.9141   383
29.9241   391
29.9341   413
29.9441   385
29.9541   381
29.9641   385
29.9741   358
29.9841   368
29.9941   382
30.0041   379
30.0141   377
30.0241   370
30.0341   382
30.0441   369
30.0541   364
30.0641   373
30.0741   376
30.0841   355
30.0941   363
30.1041   365
30.1141   415
30.1241   387
30.1341   370
30.1441   377
30.1541   400
30.1641   367
30.1741   386
30.1841   365
30.1941   364
30.2041   348
30.2141   420
30.2241   396
30.2341   378
30.2441   387
30.2541   364
30.2641   371
30.2741   354
30.2841   340
30.2941   345
30.3041   355
30.3141   392
30.3241   359
30.3341   363
30.3441   345
30.3541   379
30.3641   390
30.3741   352
30.3841   359
30.3941   368
30.4041   368
30.4141   376
30.4241   368
30.4341   333
30.4441   350
30.4541   374
30.4641   402
30.4741   388
30.4841   340
30.4941   344
30.5041   376
30.5141   359
30.5241   353
30.5341   355
30.5441   341
30.5541   338
30.5641   367
30.5741   334
30.5841   349
30.5941   354
30.6041   339
30.6141   359
30.6241   339
30.6341   370
30.6441   323
30.6541   363
30.6641   339
30.6741   358
30.6841   312
30.6941   343
30.7041   356
30.7141   332
30.7241   363
30.7341   294
30.7441   355
30.7541   331
30.7641   330
30.7741   354
30.7841   349
30.7941   315
30.8041   320
30.8141   333
30.8241   305
30.8341   344
30.8441   331
30.8541   355
30.8641   337
30.8741   334
30.8841   342
30.8941   337
30.9041   329
30.9141   343
30.9241   332
30.9341   336
30.9441   301
30.9541   347
30.9641   332
30.9741   346
30.9841   361
30.9941   316
31.0041   329
31.0141   354
31.0241   336
31.0341   316
31.0441   331
31.0541   328
31.0641   342
31.0741   326
31.0841   318
31.0941   329
31.1041   312
31.1141   306
31.1241   314
31.1341   310
31.1441   335
31.1541   301
31.1641   332
31.1741   319
31.1841   301
31.1941   340
31.2041   319
31.2141   332
31.2241   316
31.2341   297
31.2441   308
31.2541   290
31.2641   309
31.2741   332
31.2841   321
31.2941   280
31.3041   319
31.3141   354
31.3241   348
31.3341   302
31.3441   323
31.3541   334
31.3641   331
31.3741   325
31.3841   328
31.3941   303
31.4041   322
31.4141   320
31.4241   320
31.4341   324
31.4441   282
31.4541   313
31.4641   329
31.4741   298
31.4841   295
31.4941   299
31.5041   323
31.5141   308
31.5241   309
31.5341   291
31.5441   313
31.5541   297
31.5641   304
31.5741   343
31.5841   301
31.5941   288
31.6041   318
31.6141   288
31.6241   289
31.6341   284
31.6441   303
31.6541   312
31.6641   307
31.6741   280
31.6841   300
31.6941   296
31.7041   329
31.7141   299
31.7241   327
31.7341   323
31.7441   283
31.7541   301
31.7641   301
31.7741   331
31.7841   316
31.7941   285
31.8041   292
31.8141   277
31.8241   291
31.8341   286
31.8441   261
31.8541   301
31.8641   292
31.8741   299
31.8841   283
31.8941   273
31.9041   284
31.9141   282
31.9241   319
31.9341   305
31.9441   307
31.9541   323
31.9641   281
31.9741   270
31.9841   270
31.9941   309
32.0041   295
32.0141   283
32.0241   303
32.0341   302
32.0441   285
32.0541   260
32.0641   292
32.0741   303
32.0841   291
32.0941   283
32.1041   296
32.1141   290
32.1241   279
32.1341   262
32.1441   293
32.1541   272
32.1641   278
32.1741   252
32.1841   296
32.1941   283
32.2041   297
32.2141   292
32.2241   304
32.2341   284
32.2441   252
32.2541   273
32.2641   296
32.2741   272
32.2841   290
32.2941   282
32.3041   254
32.3141   246
32.3241   273
32.3341   291
32.3441   262
32.3541   281
32.3641   262
32.3741   268
32.3841   263
32.3941   241
32.4041   275
32.4141   270
32.4241   290
32.4341   289
32.4441   273
32.4541   282
32.4641   264
32.4741   249
32.4841   277
32.4941   261
32.5041   268
32.5141   251
32.5241   277
32.5341   246
32.5441   253
32.5541   267
32.5641   274
32.5741   252
32.5841   248
32.5941   251
32.6041   293
32.6141   263
32.6241   267
32.6341   255
32.6441   253
32.6541   248
32.6641   246
32.6741   228
32.6841   246
32.6941   242
32.7041   269
32.7141   261
32.7241   262
32.7341   259
32.7441   232
32.7541   248
32.7641   233
32.7741   255
32.7841   254
32.7941   257
32.8041   220
32.8141   262
32.8241   229
32.8341   231
32.8441   222
32.8541   246
32.8641   225
32.8741   251
32.8841   254
32.8941   254
32.9041   225
32.9141   250
32.9241   231
32.9341   252
32.9441   251
32.9541   232
32.9641   251
32.9741   258
32.9841   221
32.9941   232
33.0041   207
33.0141   226
33.0241   228
33.0341   209
33.0441   225
33.0541   232
33.0641   220
33.0741   237
33.0841   221
33.0941   245
33.1041   249
33.1141   227
33.1241   256
33.1341   267
33.1441   209
33.1541   236
33.1641   228
33.1741   251
33.1841   234
33.1941   251
33.2041   239
33.2141   263
33.2241   241
33.2341   223
33.2441   207
33.2541   196
33.2641   258
33.2741   234
33.2841   251
33.2941   244
33.3041   245
33.3141   223
33.3241   222
33.3341   218
33.3441   220
33.3541   246
33.3641   252
33.3741   218
33.3841   236
33.3941   220
33.4041   230
33.4141   193
33.4241   202
33.4341   239
33.4441   222
33.4541   229
33.4641   233
33.4741   207
33.4841   214
33.4941   196
33.5041   206
33.5141   202
33.5241   235
33.5341   208
33.5441   190
33.5541   197
33.5641   226
33.5741   221
33.5841   198
33.5941   218
33.6041   221
33.6141   226
33.6241   218
33.6341   241
33.6441   190
33.6541   221
33.6641   219
33.6741   218
33.6841   211
33.6941   228
33.7041   214
33.7141   232
33.7241   204
33.7341   206
33.7441   191
33.7541   198
33.7641   221
33.7741   199
33.7841   219
33.7941   174
33.8041   204
33.8141   201
33.8241   210
33.8341   198
33.8441   214
33.8541   204
33.8641   210
33.8741   212
33.8841   198
33.8941   190
33.9041   208
33.9141   196
33.9241   208
33.9341   207
33.9441   212
33.9541   194
33.9641   207
33.9741   213
33.9841   189
33.9941   192
34.0041   229
34.0141   204
34.0241   207
34.0341   179
34.0441   200
34.0541   220
34.0641   206
34.0741   194
34.0841   201
34.0941   208
34.1041   196
34.1141   204
34.1241   187
34.1341   209
34.1441   219
34.1541   192
34.1641   178
34.1741   186
34.1841   192
34.1941   180
34.2041   171
34.2141   180
34.2241   194
34.2341   209
34.2441   182
34.2541   188
34.2641   207
34.2741   200
34.2841   191
34.2941   178
34.3041   216
34.3141   227
34.3241   181
34.3341   171
34.3441   202
34.3541   193
34.3641   178
34.3741   174
34.3841   178
34.3941   166
34.4041   190
34.4141   198
34.4241   171
34.4341   166
34.4441   183
34.4541   183
34.4641   188
34.4741   177
34.4841   179
34.4941   178
34.5041   175
34.5141   210
34.5241   177
34.5341   180
34.5441   171
34.5541   165
34.5641   180
34.5741   168
34.5841   200
34.5941   207
34.6041   180
34.6141   181
34.6241   172
34.6341   171
34.6441   170
34.6541   182
34.6641   168
34.6741   166
34.6841   198
34.6941   200
34.7041   157
34.7141   182
34.7241   166
34.7341   166
34.7441   160
34.7541   153
34.7641   172
34.7741   160
34.7841   170
34.7941   173
34.8041   187
34.8141   172
34.8241   164
34.8341   158
34.8441   169
34.8541   179
34.8641   161
34.8741   169
34.8841   163
34.8941   169
34.9041   175
34.9141   179
34.9241   158
34.9341   154
34.9441   155
34.9541   187
34.9641   162
34.9741   153
34.9841   158
34.9941   170
35.0041   162
35.0141   154
35.0241   177
35.0341   156
35.0441   160
35.0541   170
35.0641   162
35.0741   173
35.0841   170
35.0941   170
35.1041   152
35.1141   160
35.1241   165
35.1341   167
35.1441   148
35.1541   136
35.1641   144
35.1741   161
35.1841   152
35.1941   159
35.2041   171
35.2141   172
35.2241   140
35.2341   171
35.2441   169
35.2541   170
35.2641   144
35.2741   142
35.2841   120
35.2941   151
35.3041   156
35.3141   128
35.3241   174
35.3341   144
35.3441   144
35.3541   141
35.3641   155
35.3741   155
35.3841   138
35.3941   162
35.4041   151
35.4141   141
35.4241   173
35.4341   146
35.4441   159
35.4541   168
35.4641   131
35.4741   150
35.4841   156
35.4941   165
35.5041   135
35.5141   148
35.5241   134
35.5341   152
35.5441   149
35.5541   155
35.5641   155
35.5741   136
35.5841   147
35.5941   144
35.6041   146
35.6141   142
35.6241   144
35.6341   144
35.6441   139
35.6541   142
35.6641   112
35.6741   126
35.6841   134
35.6941   126
35.7041   129
35.7141   156
35.7241   134
35.7341   136
35.7441   141
35.7541   132
35.7641   132
35.7741   145
35.7841   126
35.7941   139
35.8041   143
35.8141   136
35.8241   128
35.8341   123
35.8441   114
35.8541   135
35.8641   158
35.8741   128
35.8841   139
35.8941   128
35.9041   128
35.9141   143
35.9241   150
35.9341   130
35.9441   138
35.9541   145
35.9641   146
35.9741   134
35.9841   138
35.9941   151
36.0041   140
36.0141   131
36.0241   136
36.0341   122
36.0441   113
36.0541   127
36.0641   144
36.0741   142
36.0841   133
36.0941   108
36.1041   127
36.1141   137
36.1241   131
36.1341   131
36.1441   133
36.1541   127
36.1641   121
36.1741   131
36.1841   124
36.1941   123
36.2041   124
36.2141   134
36.2241   117
36.2341   120
36.2441   116
36.2541   123
36.2641   110
36.2741   129
36.2841   143
36.2941   134
36.3041   126
36.3141   125
36.3241   133
36.3341   124
36.3441   120
36.3541   121
36.3641   145
36.3741   123
36.3841   130
36.3941   124
36.4041   113
36.4141   113
36.4241   110
36.4341   121
36.4441   118
36.4541   128
36.4641   116
36.4741   127
36.4841   126
36.4941   114
36.5041   111
36.5141   125
36.5241   111
36.5341   108
36.5441   113
36.5541   114
36.5641   117
36.5741   152
36.5841   113
36.5941   119
36.6041   102
36.6141   110
36.6241   127
36.6341   105
36.6441   114
36.6541   109
36.6641    96
36.6741   104
36.6841   128
36.6941   108
36.7041   117
36.7141   101
36.7241   109
36.7341   101
36.7441   116
36.7541   111
36.7641   132
36.7741   103
36.7841   104
36.7941   102
36.8041   102
36.8141   120
36.8241   109
36.8341   103
36.8441   106
36.8541   106
36.8641   112
36.8741   110
36.8841   102
36.8941    94
36.9041    98
36.9141    97
36.9241   113
36.9341   105
36.9441    93
36.9541    95
36.9641   107
36.9741   116
36.9841   112
36.9941    95
37.0041    99
37.0141   114
37.0241    95
37.0341   111
37.0441   104
37.0541   100
37.0641   114
37.0741    98
37.0841   112
37.0941   103
37.1041    92
37.1141    96
37.1241    89
37.1341   108
37.1441   120
37.1541   109
37.1641   106
37.1741    94
37.1841   101
37.1941   107
37.2041    96
37.2141    96
37.2241   107
37.2341    96
37.2441   101
37.2541    99
37.2641    94
37.2741   103
37.2841    82
37.2941   101
37.3041   102
37.3141    75
37.3241    91
37.3341   107
37.3441    86
37.3541   100
37.3641   107
37.3741    92
37.3841    90
37.3941    75
37.4041    90
37.4141    97
37.4241   100
37.4341    92
37.4441    94
37.4541    95
37.4641    92
37.4741    91
37.4841    92
37.4941    86
37.5041    98
37.5141    91
37.5241    81
37.5341   106
37.5441    93
37.5541    79
37.5641    95
37.5741    84
37.5841    84
37.5941    94
37.6041    86
37.6141    96
37.6241    89
37.6341    95
37.6441    99
37.6541    63
37.6641    86
37.6741    86
37.6841   105
37.6941    97
37.7041    86
37.7141    89
37.7241    99
37.7341    93
37.7441   101
37.7541    98
37.7641    90
37.7741    98
37.7841   103
37.7941    79
37.8041    91
37.8141    84
37.8241    84
37.8341    77
37.8441    75
37.8541    86
37.8641    78
37.8741    69
37.8841    90
37.8941    95
37.9041    83
37.9141    97
37.9241    93
37.9341    83
37.9441    92
37.9541    80
37.9641    67
37.9741    78
37.9841    97
37.9941    80
38.0041    80
38.0141    86
38.0241    77
38.0341    84
38.0441    88
38.0541    79
38.0641    90
38.0741    74
38.0841    86
38.0941    71
38.1041    84
38.1141    79
38.1241    82
38.1341    93
38.1441    77
38.1541    67
38.1641    71
38.1741    71
38.1841    71
38.1941    71
38.2041    77
38.2141    83
38.2241    83
38.2341    78
38.2441    74
38.2541    85
38.2641    81
38.2741    83
38.2841    93
38.2941    73
38.3041    81
38.3141    91
38.3241    86
38.3341    64
38.3441    79
38.3541    88
38.3641    77
38.3741    94
38.3841    68
38.3941    75
38.4041    77
38.4141    73
38.4241    68
38.4341    80
38.4441    77
38.4541    62
38.4641    68
38.4741    74
38.4841    69
38.4941    56
38.5041    57
38.5141    63
38.5241    55
38.5341    64
38.5441    67
38.5541    61
38.5641    69
38.5741    53
38.5841    69
38.5941    56
38.6041    66
38.6141    55
38.6241    78
38.6341    87
38.6441    65
38.6541    69
38.6641    55
38.6741    76
38.6841    75
38.6941    69
38.7041    85
38.7141    72
38.7241    71
38.7341    63
38.7441    76
38.7541    71
38.7641    67
38.7741    47
38.7841    55
38.7941    61
38.8041    58
38.8141    55
38.8241    54
38.8341    61
38.8441    68
38.8541    62
38.8641    54
38.8741    58
38.8841    53
38.8941    64
38.9041    58
38.9141    68
38.9241    53
38.9341    65
38.9441    61
38.9541    65
38.9641    54
38.9741    65
38.9841    58
38.9941    54
39.0041    53
39.0141    46
39.0241    61
39.0341    55
39.0441    62
39.0541    58
39.0641    52
39.0741    68
39.0841    60
39.0941    73
39.1041    65
39.1141    64
39.1241    73
39.1341    69
39.1441    63
39.1541    63
39.1641    59
39.1741    52
39.1841    61
39.1941    58
39.2041    58
39.2141    50
39.2241    50
39.2341    68
39.2441    54
39.2541    49
39.2641    47
39.2741    51
39.2841    50
39.2941    50
39.3041    49
39.3141    50
39.3241    52
39.3341    47
39.3441    60
39.3541    53
39.3641    53
39.3741    57
39.3841    63
39.3941    65
39.4041    46
39.4141    48
39.4241    62
39.4341    52
39.4441    52
39.4541    66
39.4641    58
39.4741    58
39.4841    57
39.4941    37
39.5041    50
39.5141    46
39.5241    39
39.5341    58
39.5441    51
39.5541    44
39.5641    64
39.5741    52
39.5841    44
39.5941    52
39.6041    49
39.6141    40
39.6241    40
39.6341    53
39.6441    38
39.6541    35
39.6641    48
39.6741    48
39.6841    54
39.6941    47
39.7041    36
39.7141    52
39.7241    49
39.7341    44
39.7441    66
39.7541    57
39.7641    44
39.7741    43
39.7841    41
39.7941    46
39.8041    49
39.8141    30
39.8241    42
39.8341    26
39.8441    38
39.8541    49
39.8641    44
39.8741    47
39.8841    57
39.8941    54
39.9041    43
39.9141    42
39.9241    40
39.9341    44
39.9441    32
39.9541    40
39.9641    27
39.9741    34
39.9841    45
39.9941    42
