Bruker Nano GmbH Berlin, Germany
Esprit 1.9

Date: 5/14/2021 1:39:09 PM
Real time: 18026
Life time: 16957
Pulse density: 88438


Detector type: XFlash 430
Window type: Custom type
Detector thickness: 0.45
Si dead layer:0.029

Calibration, lin.: 10
Calibration, abs.: -955.9
Mn FWHM: 137.05
Fano factor: 0.121
Channels: 4095

Energy Counts
-0.9559     0
-0.9459     0
-0.9359     0
-0.9259     0
-0.9159     0
-0.9059     0
-0.8959     0
-0.8859     0
-0.8759     0
-0.8659     0
-0.8559     0
-0.8459     0
-0.8359     0
-0.8259     0
-0.8159     0
-0.8059     0
-0.7959     0
-0.7859     0
-0.7759     0
-0.7659     0
-0.7559     0
-0.7459     0
-0.7359     0
-0.7259     0
-0.7159     0
-0.7059     0
-0.6959     0
-0.6859     0
-0.6759     0
-0.6659     0
-0.6559     0
-0.6459     0
-0.6359     0
-0.6259     0
-0.6159     0
-0.6059     0
-0.5959     0
-0.5859     0
-0.5759     0
-0.5659     0
-0.5559     0
-0.5459     0
-0.5359     0
-0.5259     0
-0.5159     0
-0.5059     0
-0.4959     0
-0.4859     0
-0.4759     0
-0.4659     0
-0.4559     0
-0.4459     0
-0.4359     0
-0.4259     0
-0.4159     0
-0.4059     0
-0.3959     0
-0.3859     0
-0.3759     0
-0.3659     0
-0.3559     0
-0.3459     0
-0.3359     0
-0.3259     0
-0.3159     0
-0.3059     0
-0.2959     0
-0.2859     0
-0.2759     0
-0.2659     0
-0.2559     0
-0.2459     0
-0.2359     0
-0.2259     0
-0.2159     0
-0.2059     0
-0.1959     0
-0.1859     0
-0.1759     0
-0.1659     0
-0.1559     0
-0.1459     0
-0.1359     1
-0.1259     0
-0.1159     2
-0.1059    10
-0.0959    54
-0.0859   185
-0.0759   689
-0.0659  1946
-0.0559  4851
-0.0459 10784
-0.0359 20301
-0.0259 32186
-0.0159 44335
-0.0059 52128
 0.0041 52328
 0.0141 44777
 0.0241 33191
 0.0341 20877
 0.0441 11448
 0.0541  5392
 0.0641  2223
 0.0741   688
 0.0841   228
 0.0941    54
 0.1041    17
 0.1141    10
 0.1241     4
 0.1341     4
 0.1441     1
 0.1541     3
 0.1641     5
 0.1741     0
 0.1841   122
 0.1941   267
 0.2041   221
 0.2141   215
 0.2241   226
 0.2341   235
 0.2441   233
 0.2541   251
 0.2641   236
 0.2741   241
 0.2841   230
 0.2941   227
 0.3041   253
 0.3141   243
 0.3241   212
 0.3341   229
 0.3441   240
 0.3541   207
 0.3641   216
 0.3741   207
 0.3841   221
 0.3941   221
 0.4041   215
 0.4141   207
 0.4241   209
 0.4341   219
 0.4441   210
 0.4541   215
 0.4641   214
 0.4741   202
 0.4841   216
 0.4941   196
 0.5041   201
 0.5141   213
 0.5241   208
 0.5341   204
 0.5441   192
 0.5541   189
 0.5641   195
 0.5741   196
 0.5841   193
 0.5941   209
 0.6041   205
 0.6141   188
 0.6241   198
 0.6341   181
 0.6441   178
 0.6541   174
 0.6641   169
 0.6741   170
 0.6841   174
 0.6941   170
 0.7041   179
 0.7141   196
 0.7241   186
 0.7341   167
 0.7441   178
 0.7541   184
 0.7641   170
 0.7741   163
 0.7841   168
 0.7941   164
 0.8041   168
 0.8141   184
 0.8241   178
 0.8341   177
 0.8441   175
 0.8541   158
 0.8641   155
 0.8741   164
 0.8841   167
 0.8941   179
 0.9041   151
 0.9141   165
 0.9241   155
 0.9341   163
 0.9441   162
 0.9541   158
 0.9641   160
 0.9741   145
 0.9841   169
 0.9941   163
 1.0041   156
 1.0141   160
 1.0241   159
 1.0341   165
 1.0441   161
 1.0541   151
 1.0641   142
 1.0741   150
 1.0841   148
 1.0941   145
 1.1041   173
 1.1141   163
 1.1241   160
 1.1341   147
 1.1441   140
 1.1541   120
 1.1641   139
 1.1741   149
 1.1841   153
 1.1941   140
 1.2041   144
 1.2141   135
 1.2241   121
 1.2341   136
 1.2441   128
 1.2541   154
 1.2641   135
 1.2741   136
 1.2841   135
 1.2941   144
 1.3041   151
 1.3141   140
 1.3241   141
 1.3341   136
 1.3441   136
 1.3541   137
 1.3641   129
 1.3741   140
 1.3841   135
 1.3941   120
 1.4041   122
 1.4141   143
 1.4241   142
 1.4341   139
 1.4441   143
 1.4541   137
 1.4641   136
 1.4741   161
 1.4841   146
 1.4941   150
 1.5041   163
 1.5141   142
 1.5241   108
 1.5341   159
 1.5441   136
 1.5541   121
 1.5641   132
 1.5741   128
 1.5841   136
 1.5941   120
 1.6041   128
 1.6141   142
 1.6241   127
 1.6341   129
 1.6441   136
 1.6541   164
 1.6641   211
 1.6741   254
 1.6841   325
 1.6941   381
 1.7041   502
 1.7141   584
 1.7241   638
 1.7341   729
 1.7441   672
 1.7541   636
 1.7641   554
 1.7741   466
 1.7841   420
 1.7941   339
 1.8041   258
 1.8141   238
 1.8241   201
 1.8341   181
 1.8441   173
 1.8541   178
 1.8641   160
 1.8741   174
 1.8841   159
 1.8941   144
 1.9041   136
 1.9141   142
 1.9241   141
 1.9341   123
 1.9441   136
 1.9541   143
 1.9641   167
 1.9741   155
 1.9841   179
 1.9941   167
 2.0041   205
 2.0141   172
 2.0241   163
 2.0341   162
 2.0441   145
 2.0541   152
 2.0641   131
 2.0741   140
 2.0841   120
 2.0941   145
 2.1041   146
 2.1141   131
 2.1241   114
 2.1341   140
 2.1441   141
 2.1541   116
 2.1641   124
 2.1741   125
 2.1841   107
 2.1941   133
 2.2041   133
 2.2141   115
 2.2241   110
 2.2341   132
 2.2441   104
 2.2541   127
 2.2641   107
 2.2741   128
 2.2841   121
 2.2941   130
 2.3041   130
 2.3141   104
 2.3241   132
 2.3341   122
 2.3441   112
 2.3541   109
 2.3641    88
 2.3741   115
 2.3841    97
 2.3941   120
 2.4041    96
 2.4141   111
 2.4241   109
 2.4341   109
 2.4441    96
 2.4541   114
 2.4641   115
 2.4741   122
 2.4841   114
 2.4941    98
 2.5041   100
 2.5141   121
 2.5241    97
 2.5341   100
 2.5441   104
 2.5541    97
 2.5641   106
 2.5741    98
 2.5841    93
 2.5941   113
 2.6041   106
 2.6141    83
 2.6241    98
 2.6341   109
 2.6441    90
 2.6541    99
 2.6641   103
 2.6741    95
 2.6841    88
 2.6941   112
 2.7041    98
 2.7141   107
 2.7241    82
 2.7341   101
 2.7441    86
 2.7541    98
 2.7641   115
 2.7741    99
 2.7841    95
 2.7941   122
 2.8041    91
 2.8141   105
 2.8241   100
 2.8341   114
 2.8441   110
 2.8541    80
 2.8641   104
 2.8741    93
 2.8841    93
 2.8941   111
 2.9041    96
 2.9141    92
 2.9241    95
 2.9341    91
 2.9441    97
 2.9541   101
 2.9641    96
 2.9741    97
 2.9841    95
 2.9941   100
 3.0041    84
 3.0141    96
 3.0241    59
 3.0341   107
 3.0441    87
 3.0541    88
 3.0641    71
 3.0741    73
 3.0841    91
 3.0941    78
 3.1041   100
 3.1141    91
 3.1241    91
 3.1341    84
 3.1441   103
 3.1541   102
 3.1641    80
 3.1741    86
 3.1841    79
 3.1941    93
 3.2041   102
 3.2141   102
 3.2241   101
 3.2341   126
 3.2441   138
 3.2541   163
 3.2641   186
 3.2741   196
 3.2841   223
 3.2941   221
 3.3041   257
 3.3141   272
 3.3241   219
 3.3341   250
 3.3441   225
 3.3541   172
 3.3641   161
 3.3741   145
 3.3841   133
 3.3941   121
 3.4041   114
 3.4141    95
 3.4241    83
 3.4341    76
 3.4441    77
 3.4541    93
 3.4641    74
 3.4741    81
 3.4841    82
 3.4941    98
 3.5041    97
 3.5141    92
 3.5241   129
 3.5341   163
 3.5441   170
 3.5541   221
 3.5641   295
 3.5741   388
 3.5841   560
 3.5941   765
 3.6041  1053
 3.6141  1402
 3.6241  1853
 3.6341  2351
 3.6441  2897
 3.6541  3396
 3.6641  3914
 3.6741  4202
 3.6841  4447
 3.6941  4352
 3.7041  4336
 3.7141  3899
 3.7241  3545
 3.7341  2931
 3.7441  2433
 3.7541  1785
 3.7641  1424
 3.7741  1035
 3.7841   763
 3.7941   470
 3.8041   327
 3.8141   214
 3.8241   142
 3.8341   128
 3.8441   121
 3.8541    99
 3.8641   105
 3.8741   111
 3.8841   129
 3.8941   148
 3.9041   182
 3.9141   224
 3.9241   258
 3.9341   313
 3.9441   398
 3.9541   459
 3.9641   584
 3.9741   714
 3.9841   746
 3.9941   851
 4.0041   926
 4.0141   908
 4.0241   886
 4.0341   807
 4.0441   750
 4.0541   648
 4.0641   553
 4.0741   451
 4.0841   365
 4.0941   291
 4.1041   237
 4.1141   181
 4.1241   117
 4.1341    92
 4.1441    88
 4.1541    60
 4.1641    76
 4.1741    56
 4.1841    64
 4.1941    65
 4.2041    58
 4.2141    72
 4.2241    76
 4.2341    71
 4.2441    68
 4.2541    69
 4.2641    50
 4.2741    46
 4.2841    60
 4.2941    65
 4.3041    68
 4.3141    59
 4.3241    47
 4.3341    60
 4.3441    65
 4.3541    60
 4.3641    67
 4.3741    87
 4.3841    86
 4.3941   107
 4.4041    99
 4.4141   122
 4.4241   142
 4.4341   159
 4.4441   202
 4.4541   227
 4.4641   277
 4.4741   319
 4.4841   331
 4.4941   338
 4.5041   323
 4.5141   354
 4.5241   299
 4.5341   291
 4.5441   273
 4.5541   251
 4.5641   217
 4.5741   212
 4.5841   171
 4.5941   136
 4.6041   120
 4.6141   111
 4.6241    88
 4.6341    66
 4.6441    88
 4.6541    82
 4.6641    74
 4.6741    70
 4.6841    89
 4.6941    81
 4.7041    53
 4.7141    64
 4.7241    79
 4.7341    73
 4.7441    78
 4.7541    76
 4.7641    74
 4.7741    80
 4.7841    75
 4.7941    69
 4.8041    83
 4.8141    96
 4.8241    82
 4.8341    94
 4.8441    88
 4.8541    97
 4.8641    86
 4.8741   100
 4.8841   120
 4.8941   113
 4.9041   137
 4.9141   117
 4.9241   129
 4.9341   126
 4.9441   154
 4.9541   133
 4.9641   120
 4.9741   117
 4.9841   110
 4.9941    88
 5.0041    96
 5.0141    96
 5.0241    88
 5.0341    97
 5.0441    86
 5.0541    72
 5.0641    71
 5.0741    73
 5.0841    77
 5.0941    75
 5.1041    63
 5.1141    67
 5.1241    70
 5.1341    72
 5.1441    64
 5.1541    80
 5.1641    67
 5.1741    88
 5.1841    76
 5.1941    82
 5.2041    81
 5.2141    85
 5.2241    68
 5.2341    81
 5.2441    78
 5.2541    73
 5.2641    83
 5.2741    78
 5.2841    85
 5.2941    90
 5.3041    86
 5.3141    85
 5.3241    91
 5.3341    80
 5.3441    88
 5.3541   115
 5.3641    97
 5.3741    91
 5.3841   110
 5.3941   108
 5.4041   112
 5.4141   105
 5.4241   100
 5.4341   101
 5.4441    91
 5.4541   106
 5.4641    94
 5.4741   102
 5.4841    95
 5.4941    88
 5.5041   103
 5.5141    80
 5.5241    74
 5.5341    92
 5.5441    95
 5.5541    87
 5.5641    93
 5.5741    96
 5.5841    88
 5.5941    73
 5.6041    80
 5.6141    68
 5.6241    77
 5.6341    86
 5.6441    74
 5.6541    97
 5.6641    93
 5.6741    80
 5.6841    66
 5.6941    82
 5.7041    94
 5.7141   108
 5.7241    99
 5.7341   103
 5.7441   120
 5.7541   147
 5.7641   141
 5.7741   166
 5.7841   202
 5.7941   236
 5.8041   306
 5.8141   347
 5.8241   422
 5.8341   509
 5.8441   552
 5.8541   657
 5.8641   710
 5.8741   737
 5.8841   777
 5.8941   770
 5.9041   722
 5.9141   704
 5.9241   679
 5.9341   585
 5.9441   551
 5.9541   475
 5.9641   413
 5.9741   347
 5.9841   280
 5.9941   272
 6.0041   196
 6.0141   162
 6.0241   176
 6.0341   114
 6.0441   126
 6.0541   128
 6.0641   110
 6.0741   128
 6.0841   132
 6.0941   116
 6.1041   139
 6.1141   125
 6.1241   132
 6.1341   127
 6.1441   136
 6.1541   133
 6.1641   151
 6.1741   172
 6.1841   198
 6.1941   228
 6.2041   230
 6.2141   358
 6.2241   459
 6.2341   621
 6.2441   845
 6.2541  1176
 6.2641  1580
 6.2741  2228
 6.2841  3017
 6.2941  4011
 6.3041  5028
 6.3141  6396
 6.3241  7867
 6.3341  9397
 6.3441 11048
 6.3541 12604
 6.3641 14062
 6.3741 15515
 6.3841 16100
 6.3941 16621
 6.4041 16525
 6.4141 15890
 6.4241 15010
 6.4341 13773
 6.4441 12341
 6.4541 10829
 6.4641  9145
 6.4741  7413
 6.4841  6039
 6.4941  4841
 6.5041  3624
 6.5141  2795
 6.5241  2010
 6.5341  1481
 6.5441  1089
 6.5541   763
 6.5641   518
 6.5741   392
 6.5841   287
 6.5941   243
 6.6041   205
 6.6141   179
 6.6241   149
 6.6341   156
 6.6441   163
 6.6541   138
 6.6641   122
 6.6741   145
 6.6841   146
 6.6941   135
 6.7041   138
 6.7141   136
 6.7241   155
 6.7341   143
 6.7441   129
 6.7541   137
 6.7641   136
 6.7741   170
 6.7841   137
 6.7941   160
 6.8041   185
 6.8141   159
 6.8241   157
 6.8341   171
 6.8441   188
 6.8541   197
 6.8641   266
 6.8741   260
 6.8841   253
 6.8941   315
 6.9041   389
 6.9141   422
 6.9241   558
 6.9341   673
 6.9441   822
 6.9541   963
 6.9641  1209
 6.9741  1362
 6.9841  1675
 6.9941  1928
 7.0041  2131
 7.0141  2430
 7.0241  2503
 7.0341  2658
 7.0441  2845
 7.0541  2741
 7.0641  2832
 7.0741  2806
 7.0841  2612
 7.0941  2338
 7.1041  2092
 7.1141  1840
 7.1241  1621
 7.1341  1307
 7.1441  1174
 7.1541   967
 7.1641   731
 7.1741   598
 7.1841   440
 7.1941   398
 7.2041   331
 7.2141   278
 7.2241   205
 7.2341   219
 7.2441   181
 7.2541   184
 7.2641   167
 7.2741   171
 7.2841   179
 7.2941   187
 7.3041   181
 7.3141   176
 7.3241   182
 7.3341   198
 7.3441   220
 7.3541   228
 7.3641   213
 7.3741   236
 7.3841   250
 7.3941   225
 7.4041   254
 7.4141   222
 7.4241   245
 7.4341   233
 7.4441   254
 7.4541   230
 7.4641   232
 7.4741   242
 7.4841   251
 7.4941   215
 7.5041   210
 7.5141   185
 7.5241   182
 7.5341   179
 7.5441   172
 7.5541   168
 7.5641   170
 7.5741   190
 7.5841   171
 7.5941   186
 7.6041   172
 7.6141   166
 7.6241   178
 7.6341   155
 7.6441   170
 7.6541   151
 7.6641   157
 7.6741   174
 7.6841   165
 7.6941   189
 7.7041   177
 7.7141   193
 7.7241   212
 7.7341   187
 7.7441   200
 7.7541   199
 7.7641   188
 7.7741   200
 7.7841   186
 7.7941   227
 7.8041   197
 7.8141   211
 7.8241   237
 7.8341   235
 7.8441   231
 7.8541   238
 7.8641   247
 7.8741   268
 7.8841   266
 7.8941   251
 7.9041   267
 7.9141   300
 7.9241   293
 7.9341   318
 7.9441   321
 7.9541   362
 7.9641   425
 7.9741   417
 7.9841   462
 7.9941   511
 8.0041   561
 8.0141   560
 8.0241   590
 8.0341   652
 8.0441   700
 8.0541   764
 8.0641   752
 8.0741   844
 8.0841   829
 8.0941   897
 8.1041   992
 8.1141   969
 8.1241   979
 8.1341  1052
 8.1441  1114
 8.1541  1142
 8.1641  1140
 8.1741  1197
 8.1841  1177
 8.1941  1140
 8.2041  1208
 8.2141  1188
 8.2241  1189
 8.2341  1215
 8.2441  1229
 8.2541  1256
 8.2641  1314
 8.2741  1443
 8.2841  1525
 8.2941  1620
 8.3041  1847
 8.3141  1971
 8.3241  2121
 8.3341  2225
 8.3441  2373
 8.3541  2475
 8.3641  2574
 8.3741  2688
 8.3841  2745
 8.3941  2794
 8.4041  2666
 8.4141  2511
 8.4241  2429
 8.4341  2275
 8.4441  2143
 8.4541  1841
 8.4641  1627
 8.4741  1440
 8.4841  1258
 8.4941  1060
 8.5041   935
 8.5141   748
 8.5241   650
 8.5341   576
 8.5441   457
 8.5541   425
 8.5641   398
 8.5741   375
 8.5841   355
 8.5941   348
 8.6041   318
 8.6141   335
 8.6241   334
 8.6341   306
 8.6441   343
 8.6541   311
 8.6641   338
 8.6741   328
 8.6841   323
 8.6941   326
 8.7041   344
 8.7141   310
 8.7241   306
 8.7341   301
 8.7441   298
 8.7541   245
 8.7641   256
 8.7741   270
 8.7841   245
 8.7941   252
 8.8041   251
 8.8141   246
 8.8241   250
 8.8341   271
 8.8441   271
 8.8541   274
 8.8641   260
 8.8741   268
 8.8841   258
 8.8941   266
 8.9041   271
 8.9141   277
 8.9241   265
 8.9341   279
 8.9441   259
 8.9541   275
 8.9641   276
 8.9741   262
 8.9841   296
 8.9941   286
 9.0041   296
 9.0141   331
 9.0241   305
 9.0341   315
 9.0441   310
 9.0541   341
 9.0641   353
 9.0741   384
 9.0841   380
 9.0941   382
 9.1041   398
 9.1141   421
 9.1241   428
 9.1341   422
 9.1441   432
 9.1541   492
 9.1641   469
 9.1741   505
 9.1841   536
 9.1941   572
 9.2041   587
 9.2141   637
 9.2241   644
 9.2341   690
 9.2441   730
 9.2541   795
 9.2641   813
 9.2741   819
 9.2841   864
 9.2941   901
 9.3041   927
 9.3141   927
 9.3241   962
 9.3341   996
 9.3441  1063
 9.3541  1027
 9.3641  1060
 9.3741  1084
 9.3841  1092
 9.3941  1101
 9.4041  1129
 9.4141  1133
 9.4241  1107
 9.4341  1154
 9.4441  1150
 9.4541  1193
 9.4641  1167
 9.4741  1155
 9.4841  1206
 9.4941  1227
 9.5041  1279
 9.5141  1275
 9.5241  1385
 9.5341  1421
 9.5441  1527
 9.5541  1529
 9.5641  1633
 9.5741  1732
 9.5841  1851
 9.5941  1910
 9.6041  1997
 9.6141  2172
 9.6241  2275
 9.6341  2348
 9.6441  2361
 9.6541  2371
 9.6641  2388
 9.6741  2338
 9.6841  2375
 9.6941  2227
 9.7041  2162
 9.7141  2085
 9.7241  1998
 9.7341  1874
 9.7441  1719
 9.7541  1605
 9.7641  1485
 9.7741  1332
 9.7841  1238
 9.7941  1136
 9.8041  1059
 9.8141   970
 9.8241   963
 9.8341   921
 9.8441   940
 9.8541   954
 9.8641   952
 9.8741   950
 9.8841   981
 9.8941  1042
 9.9041  1041
 9.9141  1015
 9.9241  1005
 9.9341  1029
 9.9441  1036
 9.9541  1022
 9.9641   985
 9.9741   989
 9.9841   947
 9.9941   865
10.0041   830
10.0141   814
10.0241   760
10.0341   683
10.0441   603
10.0541   559
10.0641   520
10.0741   463
10.0841   394
10.0941   355
10.1041   312
10.1141   309
10.1241   314
10.1341   259
10.1441   231
10.1541   228
10.1641   234
10.1741   203
10.1841   200
10.1941   204
10.2041   194
10.2141   180
10.2241   180
10.2341   167
10.2441   161
10.2541   146
10.2641   163
10.2741   153
10.2841   150
10.2941   147
10.3041   148
10.3141   139
10.3241   131
10.3341   138
10.3441   132
10.3541   135
10.3641   134
10.3741   141
10.3841   133
10.3941   135
10.4041   142
10.4141   136
10.4241   139
10.4341   129
10.4441   151
10.4541   148
10.4641   154
10.4741   146
10.4841   151
10.4941   167
10.5041   166
10.5141   169
10.5241   158
10.5341   167
10.5441   157
10.5541   162
10.5641   167
10.5741   154
10.5841   168
10.5941   148
10.6041   154
10.6141   154
10.6241   172
10.6341   145
10.6441   154
10.6541   166
10.6641   165
10.6741   168
10.6841   167
10.6941   173
10.7041   166
10.7141   167
10.7241   179
10.7341   197
10.7441   186
10.7541   191
10.7641   203
10.7741   199
10.7841   204
10.7941   227
10.8041   224
10.8141   227
10.8241   231
10.8341   221
10.8441   221
10.8541   225
10.8641   255
10.8741   261
10.8841   233
10.8941   238
10.9041   244
10.9141   255
10.9241   265
10.9341   253
10.9441   241
10.9541   267
10.9641   238
10.9741   238
10.9841   237
10.9941   230
11.0041   214
11.0141   229
11.0241   230
11.0341   207
11.0441   215
11.0541   213
11.0641   207
11.0741   223
11.0841   220
11.0941   222
11.1041   207
11.1141   209
11.1241   219
11.1341   225
11.1441   249
11.1541   247
11.1641   256
11.1741   242
11.1841   254
11.1941   297
11.2041   310
11.2141   308
11.2241   308
11.2341   311
11.2441   343
11.2541   353
11.2641   339
11.2741   368
11.2841   364
11.2941   330
11.3041   352
11.3141   341
11.3241   324
11.3341   304
11.3441   317
11.3541   284
11.3641   277
11.3741   286
11.3841   239
11.3941   216
11.4041   219
11.4141   220
11.4241   207
11.4341   194
11.4441   189
11.4541   197
11.4641   189
11.4741   171
11.4841   164
11.4941   163
11.5041   175
11.5141   175
11.5241   164
11.5341   185
11.5441   190
11.5541   194
11.5641   180
11.5741   168
11.5841   183
11.5941   185
11.6041   189
11.6141   194
11.6241   187
11.6341   194
11.6441   174
11.6541   181
11.6641   193
11.6741   188
11.6841   190
11.6941   183
11.7041   173
11.7141   168
11.7241   157
11.7341   169
11.7441   164
11.7541   140
11.7641   135
11.7741   136
11.7841   138
11.7941   144
11.8041   145
11.8141   137
11.8241   132
11.8341   138
11.8441   129
11.8541   122
11.8641   139
11.8741   140
11.8841   135
11.8941   120
11.9041   117
11.9141   125
11.9241   129
11.9341   116
11.9441   119
11.9541   139
11.9641   145
11.9741   150
11.9841   142
11.9941   138
12.0041   143
12.0141   160
12.0241   146
12.0341   130
12.0441   127
12.0541   140
12.0641   137
12.0741   138
12.0841   130
12.0941   131
12.1041   139
12.1141   148
12.1241   148
12.1341   131
12.1441   112
12.1541   125
12.1641   133
12.1741   127
12.1841   123
12.1941   132
12.2041   155
12.2141   142
12.2241   135
12.2341   129
12.2441   117
12.2541   128
12.2641   138
12.2741   139
12.2841   133
12.2941   132
12.3041   131
12.3141   120
12.3241   129
12.3341   136
12.3441   128
12.3541   131
12.3641   144
12.3741   137
12.3841   127
12.3941   137
12.4041   120
12.4141   132
12.4241   131
12.4341   126
12.4441   129
12.4541   138
12.4641   139
12.4741   153
12.4841   156
12.4941   140
12.5041   131
12.5141   147
12.5241   146
12.5341   147
12.5441   139
12.5541   158
12.5641   161
12.5741   150
12.5841   150
12.5941   164
12.6041   174
12.6141   172
12.6241   156
12.6341   142
12.6441   153
12.6541   148
12.6641   139
12.6741   145
12.6841   147
12.6941   149
12.7041   144
12.7141   153
12.7241   160
12.7341   153
12.7441   146
12.7541   151
12.7641   156
12.7741   154
12.7841   149
12.7941   149
12.8041   157
12.8141   167
12.8241   163
12.8341   155
12.8441   151
12.8541   153
12.8641   165
12.8741   172
12.8841   169
12.8941   164
12.9041   159
12.9141   150
12.9241   147
12.9341   149
12.9441   155
12.9541   160
12.9641   157
12.9741   153
12.9841   156
12.9941   159
13.0041   161
13.0141   162
13.0241   159
13.0341   157
13.0441   160
13.0541   162
13.0641   162
13.0741   171
13.0841   188
13.0941   196
13.1041   183
13.1141   171
13.1241   171
13.1341   172
13.1441   173
13.1541   177
13.1641   175
13.1741   167
13.1841   164
13.1941   188
13.2041   195
13.2141   180
13.2241   193
13.2341   202
13.2441   181
13.2541   180
13.2641   192
13.2741   210
13.2841   213
13.2941   205
13.3041   203
13.3141   226
13.3241   235
13.3341   236
13.3441   246
13.3541   242
13.3641   238
13.3741   234
13.3841   238
13.3941   256
13.4041   262
13.4141   250
13.4241   245
13.4341   239
13.4441   233
13.4541   226
13.4641   221
13.4741   224
13.4841   235
13.4941   225
13.5041   196
13.5141   193
13.5241   201
13.5341   207
13.5441   197
13.5541   201
13.5641   207
13.5741   205
13.5841   209
13.5941   200
13.6041   201
13.6141   202
13.6241   205
13.6341   198
13.6441   200
13.6541   187
13.6641   173
13.6741   191
13.6841   195
13.6941   189
13.7041   189
13.7141   200
13.7241   216
13.7341   209
13.7441   193
13.7541   198
13.7641   206
13.7741   214
13.7841   231
13.7941   220
13.8041   203
13.8141   201
13.8241   205
13.8341   201
13.8441   203
13.8541   215
13.8641   215
13.8741   204
13.8841   205
13.8941   218
13.9041   211
13.9141   227
13.9241   236
13.9341   223
13.9441   232
13.9541   237
13.9641   252
13.9741   265
13.9841   263
13.9941   277
14.0041   278
14.0141   277
14.0241   286
14.0341   318
14.0441   344
14.0541   335
14.0641   361
14.0741   380
14.0841   392
14.0941   392
14.1041   373
14.1141   385
14.1241   400
14.1341   424
14.1441   429
14.1541   422
14.1641   433
14.1741   420
14.1841   413
14.1941   421
14.2041   387
14.2141   353
14.2241   371
14.2341   371
14.2441   341
14.2541   332
14.2641   322
14.2741   304
14.2841   280
14.2941   279
14.3041   282
14.3141   267
14.3241   260
14.3341   250
14.3441   242
14.3541   228
14.3641   229
14.3741   241
14.3841   228
14.3941   234
14.4041   249
14.4141   243
14.4241   246
14.4341   236
14.4441   229
14.4541   242
14.4641   240
14.4741   235
14.4841   250
14.4941   244
14.5041   227
14.5141   249
14.5241   269
14.5341   246
14.5441   229
14.5541   235
14.5641   239
14.5741   245
14.5841   247
14.5941   230
14.6041   229
14.6141   239
14.6241   236
14.6341   256
14.6441   254
14.6541   248
14.6641   263
14.6741   253
14.6841   251
14.6941   253
14.7041   255
14.7141   256
14.7241   249
14.7341   256
14.7441   261
14.7541   254
14.7641   253
14.7741   264
14.7841   280
14.7941   272
14.8041   279
14.8141   296
14.8241   288
14.8341   263
14.8441   265
14.8541   284
14.8641   296
14.8741   280
14.8841   262
14.8941   266
14.9041   298
14.9141   294
14.9241   295
14.9341   301
14.9441   313
14.9541   311
14.9641   283
14.9741   313
14.9841   316
14.9941   288
15.0041   298
15.0141   304
15.0241   292
15.0341   303
15.0441   291
15.0541   294
15.0641   289
15.0741   276
15.0841   283
15.0941   292
15.1041   302
15.1141   300
15.1241   295
15.1341   278
15.1441   262
15.1541   291
15.1641   287
15.1741   274
15.1841   272
15.1941   287
15.2041   305
15.2141   308
15.2241   303
15.2341   308
15.2441   288
15.2541   279
15.2641   271
15.2741   270
15.2841   278
15.2941   284
15.3041   269
15.3141   267
15.3241   277
15.3341   297
15.3441   291
15.3541   278
15.3641   280
15.3741   290
15.3841   274
15.3941   266
15.4041   296
15.4141   305
15.4241   304
15.4341   303
15.4441   298
15.4541   293
15.4641   286
15.4741   285
15.4841   294
15.4941   292
15.5041   301
15.5141   301
15.5241   298
15.5341   319
15.5441   346
15.5541   329
15.5641   316
15.5741   327
15.5841   348
15.5941   363
15.6041   370
15.6141   345
15.6241   368
15.6341   381
15.6441   401
15.6541   423
15.6641   432
15.6741   432
15.6841   441
15.6941   439
15.7041   448
15.7141   435
15.7241   442
15.7341   460
15.7441   465
15.7541   472
15.7641   488
15.7741   477
15.7841   484
15.7941   473
15.8041   470
15.8141   457
15.8241   440
15.8341   438
15.8441   437
15.8541   444
15.8641   425
15.8741   406
15.8841   418
15.8941   420
15.9041   399
15.9141   371
15.9241   366
15.9341   359
15.9441   362
15.9541   362
15.9641   327
15.9741   350
15.9841   337
15.9941   338
16.0041   326
16.0141   338
16.0241   346
16.0341   345
16.0441   336
16.0541   335
16.0641   334
16.0741   339
16.0841   353
16.0941   349
16.1041   339
16.1141   352
16.1241   350
16.1341   355
16.1441   323
16.1541   345
16.1641   349
16.1741   339
16.1841   359
16.1941   348
16.2041   342
16.2141   339
16.2241   327
16.2341   341
16.2441   366
16.2541   356
16.2641   369
16.2741   374
16.2841   343
16.2941   362
16.3041   358
16.3141   353
16.3241   344
16.3341   335
16.3441   340
16.3541   346
16.3641   372
16.3741   372
16.3841   355
16.3941   365
16.4041   366
16.4141   375
16.4241   338
16.4341   363
16.4441   363
16.4541   357
16.4641   376
16.4741   370
16.4841   372
16.4941   367
16.5041   371
16.5141   383
16.5241   370
16.5341   385
16.5441   389
16.5541   395
16.5641   364
16.5741   335
16.5841   363
16.5941   367
16.6041   389
16.6141   403
16.6241   415
16.6341   385
16.6441   388
16.6541   379
16.6641   367
16.6741   371
16.6841   386
16.6941   401
16.7041   370
16.7141   388
16.7241   371
16.7341   374
16.7441   392
16.7541   396
16.7641   388
16.7741   358
16.7841   383
16.7941   382
16.8041   384
16.8141   367
16.8241   396
16.8341   384
16.8441   375
16.8541   376
16.8641   401
16.8741   380
16.8841   385
16.8941   389
16.9041   380
16.9141   403
16.9241   407
16.9341   399
16.9441   417
16.9541   411
16.9641   416
16.9741   417
16.9841   389
16.9941   389
17.0041   398
17.0141   394
17.0241   396
17.0341   377
17.0441   392
17.0541   391
17.0641   389
17.0741   388
17.0841   404
17.0941   424
17.1041   412
17.1141   405
17.1241   408
17.1341   416
17.1441   406
17.1541   418
17.1641   421
17.1741   422
17.1841   384
17.1941   414
17.2041   458
17.2141   434
17.2241   377
17.2341   397
17.2441   374
17.2541   370
17.2641   411
17.2741   433
17.2841   418
17.2941   406
17.3041   403
17.3141   426
17.3241   442
17.3341   411
17.3441   411
17.3541   418
17.3641   408
17.3741   388
17.3841   409
17.3941   442
17.4041   436
17.4141   403
17.4241   448
17.4341   421
17.4441   410
17.4541   420
17.4641   433
17.4741   426
17.4841   419
17.4941   419
17.5041   404
17.5141   429
17.5241   411
17.5341   424
17.5441   440
17.5541   447
17.5641   467
17.5741   427
17.5841   445
17.5941   430
17.6041   440
17.6141   473
17.6241   454
17.6341   453
17.6441   445
17.6541   495
17.6641   459
17.6741   463
17.6841   482
17.6941   465
17.7041   449
17.7141   455
17.7241   468
17.7341   477
17.7441   461
17.7541   447
17.7641   466
17.7741   478
17.7841   482
17.7941   463
17.8041   454
17.8141   454
17.8241   449
17.8341   443
17.8441   425
17.8541   459
17.8641   451
17.8741   442
17.8841   455
17.8941   436
17.9041   436
17.9141   477
17.9241   477
17.9341   455
17.9441   430
17.9541   446
17.9641   454
17.9741   462
17.9841   453
17.9941   454
18.0041   435
18.0141   424
18.0241   438
18.0341   470
18.0441   445
18.0541   460
18.0641   478
18.0741   468
18.0841   449
18.0941   465
18.1041   472
18.1141   463
18.1241   445
18.1341   459
18.1441   458
18.1541   463
18.1641   445
18.1741   478
18.1841   450
18.1941   458
18.2041   434
18.2141   472
18.2241   441
18.2341   445
18.2441   440
18.2541   443
18.2641   471
18.2741   486
18.2841   441
18.2941   452
18.3041   456
18.3141   491
18.3241   493
18.3341   468
18.3441   436
18.3541   451
18.3641   427
18.3741   486
18.3841   462
18.3941   433
18.4041   427
18.4141   454
18.4241   496
18.4341   489
18.4441   446
18.4541   444
18.4641   446
18.4741   457
18.4841   472
18.4941   482
18.5041   446
18.5141   466
18.5241   496
18.5341   504
18.5441   485
18.5541   486
18.5641   467
18.5741   467
18.5841   477
18.5941   477
18.6041   481
18.6141   463
18.6241   466
18.6341   471
18.6441   497
18.6541   504
18.6641   490
18.6741   490
18.6841   476
18.6941   481
18.7041   447
18.7141   474
18.7241   467
18.7341   455
18.7441   481
18.7541   491
18.7641   484
18.7741   464
18.7841   460
18.7941   461
18.8041   486
18.8141   455
18.8241   470
18.8341   491
18.8441   491
18.8541   462
18.8641   483
18.8741   476
18.8841   459
18.8941   474
18.9041   495
18.9141   500
18.9241   483
18.9341   449
18.9441   439
18.9541   455
18.9641   489
18.9741   497
18.9841   510
18.9941   480
19.0041   509
19.0141   510
19.0241   486
19.0341   485
19.0441   489
19.0541   498
19.0641   498
19.0741   480
19.0841   494
19.0941   465
19.1041   478
19.1141   492
19.1241   472
19.1341   508
19.1441   496
19.1541   527
19.1641   472
19.1741   483
19.1841   488
19.1941   514
19.2041   491
19.2141   497
19.2241   514
19.2341   495
19.2441   486
19.2541   496
19.2641   469
19.2741   486
19.2841   486
19.2941   500
19.3041   466
19.3141   475
19.3241   489
19.3341   462
19.3441   491
19.3541   509
19.3641   488
19.3741   519
19.3841   504
19.3941   513
19.4041   505
19.4141   526
19.4241   472
19.4341   475
19.4441   482
19.4541   479
19.4641   477
19.4741   506
19.4841   521
19.4941   516
19.5041   531
19.5141   526
19.5241   523
19.5341   496
19.5441   496
19.5541   493
19.5641   497
19.5741   519
19.5841   486
19.5941   510
19.6041   479
19.6141   532
19.6241   491
19.6341   491
19.6441   478
19.6541   491
19.6641   472
19.6741   499
19.6841   534
19.6941   501
19.7041   475
19.7141   531
19.7241   497
19.7341   515
19.7441   467
19.7541   472
19.7641   482
19.7741   499
19.7841   489
19.7941   486
19.8041   491
19.8141   501
19.8241   491
19.8341   495
19.8441   487
19.8541   505
19.8641   509
19.8741   474
19.8841   508
19.8941   516
19.9041   502
19.9141   486
19.9241   472
19.9341   526
19.9441   524
19.9541   538
19.9641   489
19.9741   493
19.9841   476
19.9941   488
20.0041   485
20.0141   497
20.0241   508
20.0341   483
20.0441   516
20.0541   506
20.0641   513
20.0741   492
20.0841   529
20.0941   507
20.1041   480
20.1141   508
20.1241   485
20.1341   488
20.1441   449
20.1541   489
20.1641   507
20.1741   482
20.1841   510
20.1941   502
20.2041   502
20.2141   523
20.2241   482
20.2341   524
20.2441   548
20.2541   496
20.2641   549
20.2741   490
20.2841   528
20.2941   492
20.3041   483
20.3141   526
20.3241   566
20.3341   542
20.3441   514
20.3541   446
20.3641   497
20.3741   484
20.3841   462
20.3941   503
20.4041   484
20.4141   496
20.4241   472
20.4341   522
20.4441   520
20.4541   523
20.4641   541
20.4741   497
20.4841   489
20.4941   499
20.5041   524
20.5141   487
20.5241   491
20.5341   488
20.5441   508
20.5541   508
20.5641   533
20.5741   509
20.5841   525
20.5941   511
20.6041   550
20.6141   536
20.6241   488
20.6341   529
20.6441   506
20.6541   494
20.6641   509
20.6741   514
20.6841   483
20.6941   494
20.7041   506
20.7141   500
20.7241   526
20.7341   511
20.7441   513
20.7541   504
20.7641   512
20.7741   507
20.7841   526
20.7941   522
20.8041   525
20.8141   516
20.8241   516
20.8341   514
20.8441   565
20.8541   540
20.8641   551
20.8741   537
20.8841   533
20.8941   506
20.9041   587
20.9141   569
20.9241   543
20.9341   574
20.9441   580
20.9541   633
20.9641   634
20.9741   630
20.9841   626
20.9941   665
21.0041   615
21.0141   659
21.0241   653
21.0341   650
21.0441   669
21.0541   677
21.0641   699
21.0741   722
21.0841   725
21.0941   708
21.1041   696
21.1141   714
21.1241   719
21.1341   712
21.1441   673
21.1541   711
21.1641   676
21.1741   692
21.1841   713
21.1941   721
21.2041   664
21.2141   685
21.2241   645
21.2341   604
21.2441   646
21.2541   607
21.2641   600
21.2741   638
21.2841   582
21.2941   557
21.3041   632
21.3141   568
21.3241   563
21.3341   567
21.3441   534
21.3541   518
21.3641   525
21.3741   529
21.3841   543
21.3941   511
21.4041   562
21.4141   527
21.4241   498
21.4341   502
21.4441   518
21.4541   501
21.4641   479
21.4741   488
21.4841   527
21.4941   507
21.5041   518
21.5141   544
21.5241   488
21.5341   502
21.5441   501
21.5541   560
21.5641   479
21.5741   493
21.5841   495
21.5941   456
21.6041   507
21.6141   508
21.6241   494
21.6341   494
21.6441   493
21.6541   498
21.6641   479
21.6741   531
21.6841   459
21.6941   475
21.7041   500
21.7141   465
21.7241   492
21.7341   499
21.7441   503
21.7541   486
21.7641   496
21.7741   528
21.7841   465
21.7941   520
21.8041   508
21.8141   501
21.8241   488
21.8341   504
21.8441   500
21.8541   506
21.8641   511
21.8741   532
21.8841   506
21.8941   477
21.9041   476
21.9141   489
21.9241   502
21.9341   511
21.9441   508
21.9541   497
21.9641   513
21.9741   500
21.9841   531
21.9941   492
22.0041   521
22.0141   507
22.0241   506
22.0341   489
22.0441   461
22.0541   474
22.0641   505
22.0741   474
22.0841   456
22.0941   508
22.1041   500
22.1141   460
22.1241   475
22.1341   476
22.1441   532
22.1541   500
22.1641   493
22.1741   503
22.1841   470
22.1941   553
22.2041   487
22.2141   463
22.2241   500
22.2341   457
22.2441   496
22.2541   464
22.2641   486
22.2741   490
22.2841   493
22.2941   500
22.3041   505
22.3141   498
22.3241   518
22.3341   518
22.3441   481
22.3541   487
22.3641   501
22.3741   474
22.3841   468
22.3941   473
22.4041   482
22.4141   501
22.4241   501
22.4341   464
22.4441   485
22.4541   464
22.4641   431
22.4741   499
22.4841   500
22.4941   448
22.5041   473
22.5141   505
22.5241   465
22.5341   425
22.5441   494
22.5541   465
22.5641   479
22.5741   516
22.5841   465
22.5941   478
22.6041   475
22.6141   458
22.6241   503
22.6341   456
22.6441   488
22.6541   483
22.6641   513
22.6741   474
22.6841   454
22.6941   482
22.7041   498
22.7141   482
22.7241   459
22.7341   490
22.7441   446
22.7541   499
22.7641   454
22.7741   467
22.7841   479
22.7941   486
22.8041   485
22.8141   480
22.8241   460
22.8341   494
22.8441   460
22.8541   508
22.8641   492
22.8741   477
22.8841   481
22.8941   473
22.9041   459
22.9141   478
22.9241   458
22.9341   489
22.9441   474
22.9541   503
22.9641   412
22.9741   448
22.9841   445
22.9941   492
23.0041   494
23.0141   462
23.0241   471
23.0341   470
23.0441   451
23.0541   462
23.0641   488
23.0741   473
23.0841   454
23.0941   495
23.1041   483
23.1141   484
23.1241   467
23.1341   440
23.1441   492
23.1541   495
23.1641   450
23.1741   458
23.1841   432
23.1941   429
23.2041   472
23.2141   458
23.2241   464
23.2341   432
23.2441   484
23.2541   441
23.2641   469
23.2741   463
23.2841   491
23.2941   476
23.3041   452
23.3141   466
23.3241   463
23.3341   461
23.3441   490
23.3541   464
23.3641   425
23.3741   493
23.3841   462
23.3941   462
23.4041   440
23.4141   454
23.4241   419
23.4341   485
23.4441   499
23.4541   479
23.4641   490
23.4741   433
23.4841   454
23.4941   462
23.5041   465
23.5141   433
23.5241   474
23.5341   430
23.5441   453
23.5541   487
23.5641   435
23.5741   466
23.5841   446
23.5941   441
23.6041   442
23.6141   452
23.6241   465
23.6341   450
23.6441   448
23.6541   469
23.6641   481
23.6741   439
23.6841   446
23.6941   491
23.7041   476
23.7141   460
23.7241   473
23.7341   498
23.7441   482
23.7541   478
23.7641   444
23.7741   512
23.7841   485
23.7941   468
23.8041   490
23.8141   472
23.8241   504
23.8341   482
23.8441   469
23.8541   493
23.8641   509
23.8741   461
23.8841   451
23.8941   514
23.9041   520
23.9141   488
23.9241   441
23.9341   465
23.9441   442
23.9541   479
23.9641   477
23.9741   459
23.9841   453
23.9941   486
24.0041   424
24.0141   455
24.0241   432
24.0341   427
24.0441   420
24.0541   417
24.0641   454
24.0741   460
24.0841   466
24.0941   425
24.1041   439
24.1141   435
24.1241   428
24.1341   420
24.1441   419
24.1541   436
24.1641   430
24.1741   457
24.1841   444
24.1941   463
24.2041   417
24.2141   411
24.2241   432
24.2341   420
24.2441   404
24.2541   430
24.2641   429
24.2741   445
24.2841   419
24.2941   431
24.3041   419
24.3141   430
24.3241   397
24.3341   419
24.3441   411
24.3541   418
24.3641   425
24.3741   448
24.3841   431
24.3941   469
24.4041   461
24.4141   409
24.4241   396
24.4341   450
24.4441   417
24.4541   413
24.4641   446
24.4741   390
24.4841   373
24.4941   429
24.5041   390
24.5141   393
24.5241   457
24.5341   385
24.5441   438
24.5541   383
24.5641   414
24.5741   392
24.5841   422
24.5941   405
24.6041   391
24.6141   419
24.6241   439
24.6341   404
24.6441   419
24.6541   425
24.6641   422
24.6741   409
24.6841   422
24.6941   376
24.7041   426
24.7141   425
24.7241   390
24.7341   383
24.7441   384
24.7541   396
24.7641   390
24.7741   387
24.7841   410
24.7941   425
24.8041   397
24.8141   413
24.8241   418
24.8341   386
24.8441   403
24.8541   400
24.8641   375
24.8741   402
24.8841   415
24.8941   443
24.9041   420
24.9141   401
24.9241   385
24.9341   410
24.9441   400
24.9541   400
24.9641   368
24.9741   394
24.9841   436
24.9941   409
25.0041   390
25.0141   360
25.0241   421
25.0341   420
25.0441   417
25.0541   438
25.0641   387
25.0741   397
25.0841   413
25.0941   414
25.1041   412
25.1141   406
25.1241   378
25.1341   412
25.1441   388
25.1541   417
25.1641   413
25.1741   443
25.1841   397
25.1941   382
25.2041   419
25.2141   398
25.2241   362
25.2341   422
25.2441   386
25.2541   388
25.2641   396
25.2741   432
25.2841   413
25.2941   408
25.3041   402
25.3141   413
25.3241   396
25.3341   396
25.3441   415
25.3541   403
25.3641   387
25.3741   382
25.3841   365
25.3941   359
25.4041   364
25.4141   398
25.4241   400
25.4341   395
25.4441   415
25.4541   390
25.4641   402
25.4741   373
25.4841   351
25.4941   413
25.5041   392
25.5141   388
25.5241   339
25.5341   383
25.5441   386
25.5541   387
25.5641   428
25.5741   351
25.5841   378
25.5941   347
25.6041   349
25.6141   358
25.6241   358
25.6341   403
25.6441   367
25.6541   372
25.6641   361
25.6741   400
25.6841   366
25.6941   388
25.7041   377
25.7141   358
25.7241   371
25.7341   383
25.7441   365
25.7541   353
25.7641   367
25.7741   359
25.7841   379
25.7941   363
25.8041   358
25.8141   347
25.8241   353
25.8341   336
25.8441   376
25.8541   381
25.8641   390
25.8741   354
25.8841   384
25.8941   410
25.9041   376
25.9141   352
25.9241   361
25.9341   381
25.9441   357
25.9541   379
25.9641   379
25.9741   358
25.9841   355
25.9941   372
26.0041   352
26.0141   339
26.0241   373
26.0341   349
26.0441   340
26.0541   336
26.0641   387
26.0741   350
26.0841   392
26.0941   346
26.1041   373
26.1141   370
26.1241   367
26.1341   363
26.1441   357
26.1541   314
26.1641   403
26.1741   371
26.1841   359
26.1941   358
26.2041   360
26.2141   366
26.2241   362
26.2341   369
26.2441   330
26.2541   337
26.2641   360
26.2741   336
26.2841   337
26.2941   328
26.3041   348
26.3141   377
26.3241   356
26.3341   363
26.3441   328
26.3541   353
26.3641   346
26.3741   347
26.3841   317
26.3941   367
26.4041   359
26.4141   371
26.4241   370
26.4341   375
26.4441   358
26.4541   348
26.4641   323
26.4741   327
26.4841   355
26.4941   332
26.5041   316
26.5141   322
26.5241   322
26.5341   356
26.5441   321
26.5541   370
26.5641   330
26.5741   300
26.5841   331
26.5941   346
26.6041   351
26.6141   376
26.6241   320
26.6341   352
26.6441   333
26.6541   340
26.6641   339
26.6741   311
26.6841   340
26.6941   332
26.7041   337
26.7141   348
26.7241   335
26.7341   340
26.7441   332
26.7541   341
26.7641   355
26.7741   328
26.7841   341
26.7941   355
26.8041   337
26.8141   317
26.8241   364
26.8341   344
26.8441   344
26.8541   348
26.8641   330
26.8741   327
26.8841   340
26.8941   315
26.9041   334
26.9141   336
26.9241   320
26.9341   328
26.9441   318
26.9541   323
26.9641   361
26.9741   341
26.9841   309
26.9941   313
27.0041   305
27.0141   342
27.0241   298
27.0341   331
27.0441   301
27.0541   306
27.0641   329
27.0741   309
27.0841   313
27.0941   297
27.1041   327
27.1141   332
27.1241   323
27.1341   321
27.1441   317
27.1541   324
27.1641   318
27.1741   303
27.1841   278
27.1941   303
27.2041   334
27.2141   336
27.2241   317
27.2341   328
27.2441   335
27.2541   319
27.2641   342
27.2741   309
27.2841   303
27.2941   316
27.3041   317
27.3141   295
27.3241   310
27.3341   334
27.3441   327
27.3541   308
27.3641   296
27.3741   312
27.3841   309
27.3941   313
27.4041   350
27.4141   329
27.4241   330
27.4341   319
27.4441   321
27.4541   309
27.4641   337
27.4741   335
27.4841   331
27.4941   327
27.5041   300
27.5141   287
27.5241   323
27.5341   298
27.5441   297
27.5541   320
27.5641   305
27.5741   322
27.5841   326
27.5941   280
27.6041   293
27.6141   324
27.6241   295
27.6341   298
27.6441   302
27.6541   280
27.6641   316
27.6741   295
27.6841   289
27.6941   273
27.7041   281
27.7141   299
27.7241   292
27.7341   306
27.7441   316
27.7541   289
27.7641   317
27.7741   303
27.7841   290
27.7941   277
27.8041   283
27.8141   262
27.8241   298
27.8341   301
27.8441   270
27.8541   294
27.8641   270
27.8741   284
27.8841   263
27.8941   301
27.9041   314
27.9141   303
27.9241   291
27.9341   295
27.9441   313
27.9541   264
27.9641   257
27.9741   277
27.9841   290
27.9941   283
28.0041   284
28.0141   291
28.0241   261
28.0341   283
28.0441   275
28.0541   271
28.0641   270
28.0741   290
28.0841   264
28.0941   301
28.1041   297
28.1141   249
28.1241   282
28.1341   294
28.1441   299
28.1541   283
28.1641   257
28.1741   254
28.1841   282
28.1941   262
28.2041   289
28.2141   267
28.2241   268
28.2341   294
28.2441   266
28.2541   250
28.2641   277
28.2741   247
28.2841   279
28.2941   257
28.3041   259
28.3141   265
28.3241   269
28.3341   300
28.3441   256
28.3541   288
28.3641   268
28.3741   272
28.3841   275
28.3941   284
28.4041   273
28.4141   266
28.4241   248
28.4341   278
28.4441   257
28.4541   245
28.4641   272
28.4741   282
28.4841   301
28.4941   256
28.5041   268
28.5141   289
28.5241   278
28.5341   274
28.5441   272
28.5541   266
28.5641   274
28.5741   255
28.5841   266
28.5941   256
28.6041   243
28.6141   250
28.6241   238
28.6341   272
28.6441   285
28.6541   239
28.6641   259
28.6741   259
28.6841   256
28.6941   224
28.7041   253
28.7141   285
28.7241   244
28.7341   276
28.7441   248
28.7541   233
28.7641   254
28.7741   261
28.7841   268
28.7941   263
28.8041   238
28.8141   250
28.8241   260
28.8341   237
28.8441   246
28.8541   278
28.8641   254
28.8741   248
28.8841   232
28.8941   266
28.9041   251
28.9141   243
28.9241   219
28.9341   260
28.9441   260
28.9541   275
28.9641   233
28.9741   237
28.9841   278
28.9941   235
29.0041   254
29.0141   256
29.0241   261
29.0341   248
29.0441   256
29.0541   247
29.0641   248
29.0741   268
29.0841   266
29.0941   251
29.1041   228
29.1141   266
29.1241   253
29.1341   248
29.1441   246
29.1541   254
29.1641   249
29.1741   218
29.1841   235
29.1941   253
29.2041   266
29.2141   261
29.2241   267
29.2341   245
29.2441   259
29.2541   248
29.2641   229
29.2741   238
29.2841   216
29.2941   251
29.3041   226
29.3141   209
29.3241   218
29.3341   261
29.3441   219
29.3541   235
29.3641   226
29.3741   196
29.3841   223
29.3941   252
29.4041   245
29.4141   250
29.4241   242
29.4341   253
29.4441   249
29.4541   226
29.4641   251
29.4741   265
29.4841   234
29.4941   226
29.5041   228
29.5141   205
29.5241   206
29.5341   216
29.5441   209
29.5541   226
29.5641   239
29.5741   221
29.5841   226
29.5941   228
29.6041   238
29.6141   234
29.6241   249
29.6341   240
29.6441   245
29.6541   225
29.6641   213
29.6741   202
29.6841   244
29.6941   234
29.7041   214
29.7141   237
29.7241   228
29.7341   226
29.7441   218
29.7541   240
29.7641   251
29.7741   207
29.7841   220
29.7941   244
29.8041   248
29.8141   233
29.8241   226
29.8341   222
29.8441   237
29.8541   248
29.8641   223
29.8741   212
29.8841   209
29.8941   230
29.9041   213
29.9141   197
29.9241   214
29.9341   229
29.9441   202
29.9541   228
29.9641   206
29.9741   211
29.9841   197
29.9941   243
30.0041   234
30.0141   213
30.0241   215
30.0341   184
30.0441   203
30.0541   204
30.0641   229
30.0741   194
30.0841   208
30.0941   226
30.1041   234
30.1141   204
30.1241   220
30.1341   231
30.1441   224
30.1541   213
30.1641   226
30.1741   202
30.1841   232
30.1941   209
30.2041   208
30.2141   206
30.2241   211
30.2341   215
30.2441   198
30.2541   218
30.2641   215
30.2741   209
30.2841   200
30.2941   206
30.3041   206
30.3141   209
30.3241   197
30.3341   205
30.3441   179
30.3541   197
30.3641   211
30.3741   199
30.3841   208
30.3941   192
30.4041   201
30.4141   185
30.4241   203
30.4341   212
30.4441   219
30.4541   184
30.4641   195
30.4741   187
30.4841   182
30.4941   202
30.5041   210
30.5141   199
30.5241   199
30.5341   184
30.5441   194
30.5541   180
30.5641   178
30.5741   228
30.5841   194
30.5941   190
30.6041   218
30.6141   205
30.6241   226
30.6341   192
30.6441   179
30.6541   190
30.6641   206
30.6741   185
30.6841   223
30.6941   190
30.7041   185
30.7141   171
30.7241   192
30.7341   198
30.7441   188
30.7541   205
30.7641   157
30.7741   176
30.7841   177
30.7941   196
30.8041   184
30.8141   192
30.8241   193
30.8341   189
30.8441   195
30.8541   196
30.8641   191
30.8741   194
30.8841   176
30.8941   167
30.9041   218
30.9141   189
30.9241   179
30.9341   198
30.9441   183
30.9541   178
30.9641   199
30.9741   196
30.9841   195
30.9941   174
31.0041   159
31.0141   170
31.0241   176
31.0341   167
31.0441   172
31.0541   198
31.0641   189
31.0741   167
31.0841   164
31.0941   194
31.1041   195
31.1141   163
31.1241   184
31.1341   184
31.1441   195
31.1541   187
31.1641   176
31.1741   209
31.1841   187
31.1941   172
31.2041   171
31.2141   168
31.2241   151
31.2341   161
31.2441   185
31.2541   172
31.2641   182
31.2741   171
31.2841   167
31.2941   173
31.3041   170
31.3141   191
31.3241   175
31.3341   167
31.3441   161
31.3541   136
31.3641   166
31.3741   191
31.3841   193
31.3941   163
31.4041   176
31.4141   180
31.4241   173
31.4341   169
31.4441   187
31.4541   176
31.4641   160
31.4741   169
31.4841   185
31.4941   171
31.5041   180
31.5141   161
31.5241   166
31.5341   164
31.5441   176
31.5541   177
31.5641   156
31.5741   169
31.5841   180
31.5941   174
31.6041   167
31.6141   163
31.6241   181
31.6341   157
31.6441   171
31.6541   179
31.6641   171
31.6741   161
31.6841   164
31.6941   147
31.7041   162
31.7141   160
31.7241   172
31.7341   155
31.7441   164
31.7541   175
31.7641   167
31.7741   162
31.7841   167
31.7941   164
31.8041   154
31.8141   161
31.8241   188
31.8341   151
31.8441   158
31.8541   171
31.8641   171
31.8741   146
31.8841   140
31.8941   174
31.9041   153
31.9141   173
31.9241   177
31.9341   177
31.9441   140
31.9541   156
31.9641   147
31.9741   159
31.9841   159
31.9941   140
32.0041   152
32.0141   162
32.0241   133
32.0341   132
32.0441   154
32.0541   147
32.0641   144
32.0741   170
32.0841   153
32.0941   144
32.1041   161
32.1141   156
32.1241   155
32.1341   154
32.1441   166
32.1541   142
32.1641   143
32.1741   147
32.1841   163
32.1941   143
32.2041   160
32.2141   160
32.2241   148
32.2341   141
32.2441   153
32.2541   178
32.2641   160
32.2741   163
32.2841   164
32.2941   153
32.3041   150
32.3141   158
32.3241   142
32.3341   157
32.3441   168
32.3541   155
32.3641   145
32.3741   132
32.3841   127
32.3941   171
32.4041   139
32.4141   135
32.4241   183
32.4341   148
32.4441   147
32.4541   134
32.4641   146
32.4741   146
32.4841   159
32.4941   148
32.5041   135
32.5141   143
32.5241   146
32.5341   138
32.5441   122
32.5541   122
32.5641   119
32.5741   152
32.5841   146
32.5941   138
32.6041   149
32.6141   141
32.6241   115
32.6341   116
32.6441   150
32.6541   161
32.6641   131
32.6741   142
32.6841   128
32.6941   143
32.7041   132
32.7141   135
32.7241   134
32.7341   130
32.7441   134
32.7541   123
32.7641   132
32.7741   118
32.7841   147
32.7941   134
32.8041   145
32.8141   129
32.8241   139
32.8341   128
32.8441   140
32.8541   128
32.8641   129
32.8741   144
32.8841   131
32.8941   129
32.9041   145
32.9141   124
32.9241   124
32.9341   125
32.9441   147
32.9541   144
32.9641   158
32.9741   136
32.9841   133
32.9941   119
33.0041   148
33.0141   124
33.0241   132
33.0341   124
33.0441   136
33.0541   130
33.0641   130
33.0741   134
33.0841   123
33.0941   126
33.1041   115
33.1141   136
33.1241   110
33.1341   135
33.1441   130
33.1541   127
33.1641   140
33.1741   117
33.1841   112
33.1941   125
33.2041   117
33.2141   142
33.2241   126
33.2341   119
33.2441   134
33.2541   139
33.2641   127
33.2741   125
33.2841   111
33.2941   119
33.3041   110
33.3141   120
33.3241   117
33.3341   110
33.3441   123
33.3541   131
33.3641   132
33.3741   119
33.3841   127
33.3941   127
33.4041   124
33.4141   132
33.4241   129
33.4341   114
33.4441   100
33.4541   108
33.4641   105
33.4741   125
33.4841   114
33.4941   107
33.5041   122
33.5141   122
33.5241   107
33.5341   127
33.5441   110
33.5541   127
33.5641   105
33.5741   108
33.5841   123
33.5941   124
33.6041   111
33.6141   118
33.6241   109
33.6341   121
33.6441   122
33.6541   108
33.6641   119
33.6741   119
33.6841   110
33.6941   135
33.7041   132
33.7141   134
33.7241   109
33.7341   122
33.7441   118
33.7541   120
33.7641   122
33.7741   102
33.7841   104
33.7941    93
33.8041   114
33.8141   107
33.8241   115
33.8341   116
33.8441   123
33.8541   108
33.8641   111
33.8741   113
33.8841   119
33.8941   110
33.9041    95
33.9141   118
33.9241   110
33.9341   131
33.9441   100
33.9541   114
33.9641    99
33.9741   105
33.9841   108
33.9941   100
34.0041   113
34.0141    91
34.0241    95
34.0341   123
34.0441   125
34.0541   110
34.0641   106
34.0741    99
34.0841   100
34.0941   118
34.1041   100
34.1141   114
34.1241   102
34.1341    94
34.1441   111
34.1541   102
34.1641   119
34.1741   111
34.1841   104
34.1941   115
34.2041   105
34.2141   103
34.2241    97
34.2341    99
34.2441    93
34.2541   116
34.2641   113
34.2741   103
34.2841   110
34.2941   110
34.3041   112
34.3141    89
34.3241   110
34.3341   105
34.3441    94
34.3541    96
34.3641    99
34.3741    98
34.3841    89
34.3941   114
34.4041    94
34.4141    95
34.4241   105
34.4341   100
34.4441   102
34.4541    90
34.4641    76
34.4741   111
34.4841   109
34.4941    87
34.5041   102
34.5141    95
34.5241    89
34.5341    90
34.5441    93
34.5541    87
34.5641    88
34.5741   103
34.5841    99
34.5941   103
34.6041   100
34.6141   102
34.6241    97
34.6341    99
34.6441    95
34.6541    98
34.6641   105
34.6741    96
34.6841    99
34.6941    89
34.7041    90
34.7141   103
34.7241    88
34.7341    70
34.7441    87
34.7541    94
34.7641    86
34.7741   100
34.7841    97
34.7941    92
34.8041   101
34.8141    97
34.8241    82
34.8341    67
34.8441    75
34.8541    96
34.8641    92
34.8741    87
34.8841    90
34.8941    89
34.9041    84
34.9141   103
34.9241    77
34.9341    86
34.9441    82
34.9541   101
34.9641    80
34.9741    92
34.9841    84
34.9941    83
35.0041    87
35.0141    86
35.0241    84
35.0341    91
35.0441    77
35.0541    79
35.0641    97
35.0741    84
35.0841    80
35.0941    92
35.1041    97
35.1141    89
35.1241    76
35.1341    84
35.1441    72
35.1541    86
35.1641    79
35.1741    95
35.1841    83
35.1941    72
35.2041    81
35.2141    86
35.2241    82
35.2341    73
35.2441    85
35.2541    81
35.2641   100
35.2741    74
35.2841    91
35.2941    87
35.3041    68
35.3141    73
35.3241    98
35.3341    79
35.3441    79
35.3541    77
35.3641    92
35.3741    78
35.3841    81
35.3941    83
35.4041    76
35.4141    90
35.4241    73
35.4341    81
35.4441    79
35.4541    85
35.4641    63
35.4741    68
35.4841    77
35.4941    85
35.5041    90
35.5141    79
35.5241    87
35.5341    78
35.5441    63
35.5541    76
35.5641    91
35.5741    78
35.5841    78
35.5941    73
35.6041    83
35.6141    94
35.6241    84
35.6341    83
35.6441    83
35.6541    65
35.6641    86
35.6741    81
35.6841    61
35.6941    68
35.7041    90
35.7141    68
35.7241    73
35.7341    82
35.7441    81
35.7541    71
35.7641    73
35.7741    72
35.7841    70
35.7941    58
35.8041    78
35.8141    84
35.8241    92
35.8341    81
35.8441    71
35.8541    70
35.8641    79
35.8741    75
35.8841    83
35.8941    66
35.9041    68
35.9141    76
35.9241    74
35.9341    73
35.9441    78
35.9541    60
35.9641    76
35.9741    66
35.9841    77
35.9941    72
36.0041    71
36.0141    70
36.0241    75
36.0341    71
36.0441    75
36.0541    68
36.0641    79
36.0741    81
36.0841    79
36.0941    82
36.1041    68
36.1141    87
36.1241    74
36.1341    61
36.1441    71
36.1541    51
36.1641    64
36.1741    74
36.1841    93
36.1941    70
36.2041    74
36.2141    74
36.2241    68
36.2341    66
36.2441    61
36.2541    67
36.2641    70
36.2741    62
36.2841    75
36.2941    64
36.3041    75
36.3141    64
36.3241    66
36.3341    83
36.3441    87
36.3541    68
36.3641    73
36.3741    75
36.3841    60
36.3941    51
36.4041    54
36.4141    69
36.4241    61
36.4341    62
36.4441    53
36.4541    61
36.4641    65
36.4741    69
36.4841    70
36.4941    65
36.5041    62
36.5141    49
36.5241    60
36.5341    43
36.5441    73
36.5541    71
36.5641    52
36.5741    59
36.5841    66
36.5941    45
36.6041    53
36.6141    73
36.6241    72
36.6341    55
36.6441    64
36.6541    54
36.6641    54
36.6741    49
36.6841    58
36.6941    64
36.7041    66
36.7141    54
36.7241    59
36.7341    54
36.7441    63
36.7541    65
36.7641    60
36.7741    59
36.7841    62
36.7941    48
36.8041    68
36.8141    69
36.8241    50
36.8341    62
36.8441    65
36.8541    53
36.8641    51
36.8741    45
36.8841    56
36.8941    53
36.9041    56
36.9141    47
36.9241    66
36.9341    65
36.9441    53
36.9541    52
36.9641    53
36.9741    61
36.9841    60
36.9941    69
37.0041    60
37.0141    41
37.0241    58
37.0341    57
37.0441    61
37.0541    66
37.0641    57
37.0741    48
37.0841    68
37.0941    56
37.1041    53
37.1141    42
37.1241    50
37.1341    60
37.1441    68
37.1541    60
37.1641    53
37.1741    57
37.1841    47
37.1941    51
37.2041    63
37.2141    44
37.2241    48
37.2341    57
37.2441    54
37.2541    59
37.2641    47
37.2741    55
37.2841    56
37.2941    59
37.3041    49
37.3141    40
37.3241    51
37.3341    62
37.3441    52
37.3541    56
37.3641    42
37.3741    48
37.3841    59
37.3941    52
37.4041    54
37.4141    55
37.4241    47
37.4341    33
37.4441    39
37.4541    59
37.4641    49
37.4741    42
37.4841    53
37.4941    46
37.5041    58
37.5141    52
37.5241    42
37.5341    51
37.5441    38
37.5541    57
37.5641    37
37.5741    46
37.5841    43
37.5941    40
37.6041    36
37.6141    37
37.6241    49
37.6341    50
37.6441    43
37.6541    43
37.6641    46
37.6741    36
37.6841    45
37.6941    49
37.7041    45
37.7141    50
37.7241    44
37.7341    46
37.7441    47
37.7541    51
37.7641    39
37.7741    38
37.7841    49
37.7941    46
37.8041    38
37.8141    44
37.8241    36
37.8341    42
37.8441    50
37.8541    41
37.8641    49
37.8741    48
37.8841    36
37.8941    37
37.9041    47
37.9141    46
37.9241    35
37.9341    44
37.9441    47
37.9541    35
37.9641    41
37.9741    37
37.9841    37
37.9941    42
38.0041    43
38.0141    38
38.0241    39
38.0341    47
38.0441    38
38.0541    45
38.0641    41
38.0741    30
38.0841    32
38.0941    43
38.1041    33
38.1141    42
38.1241    44
38.1341    39
38.1441    33
38.1541    35
38.1641    47
38.1741    41
38.1841    40
38.1941    33
38.2041    37
38.2141    48
38.2241    38
38.2341    40
38.2441    31
38.2541    43
38.2641    43
38.2741    45
38.2841    35
38.2941    45
38.3041    39
38.3141    32
38.3241    42
38.3341    42
38.3441    45
38.3541    45
38.3641    57
38.3741    34
38.3841    29
38.3941    35
38.4041    52
38.4141    30
38.4241    39
38.4341    34
38.4441    25
38.4541    42
38.4641    40
38.4741    30
38.4841    40
38.4941    33
38.5041    35
38.5141    39
38.5241    28
38.5341    34
38.5441    30
38.5541    25
38.5641    34
38.5741    26
38.5841    37
38.5941    25
38.6041    25
38.6141    27
38.6241    37
38.6341    38
38.6441    31
38.6541    36
38.6641    32
38.6741    33
38.6841    37
38.6941    33
38.7041    42
38.7141    31
38.7241    39
38.7341    47
38.7441    31
38.7541    36
38.7641    33
38.7741    33
38.7841    34
38.7941    35
38.8041    37
38.8141    32
38.8241    32
38.8341    32
38.8441    34
38.8541    32
38.8641    39
38.8741    29
38.8841    29
38.8941    32
38.9041    31
38.9141    23
38.9241    38
38.9341    33
38.9441    31
38.9541    40
38.9641    42
38.9741    28
38.9841    38
38.9941    31
39.0041    31
39.0141    28
39.0241    28
39.0341    29
39.0441    34
39.0541    38
39.0641    27
39.0741    30
39.0841    30
39.0941    33
39.1041    25
39.1141    28
39.1241    36
39.1341    29
39.1441    35
39.1541    33
39.1641    34
39.1741    34
39.1841    35
39.1941    29
39.2041    24
39.2141    21
39.2241    36
39.2341    25
39.2441    25
39.2541    31
39.2641    46
39.2741    25
39.2841    32
39.2941    32
39.3041    24
39.3141    28
39.3241    31
39.3341    31
39.3441    20
39.3541    26
39.3641    22
39.3741    25
39.3841    33
39.3941    27
39.4041    24
39.4141    24
39.4241    26
39.4341    26
39.4441    35
39.4541    30
39.4641    22
39.4741    21
39.4841    20
39.4941    22
39.5041    25
39.5141    27
39.5241    23
39.5341    18
39.5441    33
39.5541    30
39.5641    30
39.5741    27
39.5841    21
39.5941    20
39.6041    22
39.6141    21
39.6241    25
39.6341    26
39.6441    25
39.6541    27
39.6641    29
39.6741    18
39.6841    19
39.6941    28
39.7041    19
39.7141    22
39.7241    27
39.7341    23
39.7441    29
39.7541    23
39.7641    20
39.7741    23
39.7841    27
39.7941    16
39.8041    31
39.8141    26
39.8241    20
39.8341    22
39.8441    20
39.8541    14
39.8641    21
39.8741    22
39.8841    23
39.8941    22
39.9041    18
39.9141    18
39.9241    23
39.9341    17
39.9441    18
39.9541    20
39.9641    20
39.9741    24
39.9841    14
