Bruker Nano GmbH Berlin, Germany
Esprit 1.9

Date: 5/14/2021 1:28:29 PM
Real time: 17642
Life time: 16460
Pulse density: 97056


Detector type: XFlash 430
Window type: Custom type
Detector thickness: 0.45
Si dead layer:0.029

Calibration, lin.: 10
Calibration, abs.: -955.9
Mn FWHM: 137.05
Fano factor: 0.121
Channels: 4095

Energy Counts
-0.9559     0
-0.9459     0
-0.9359     0
-0.9259     0
-0.9159     0
-0.9059     0
-0.8959     0
-0.8859     0
-0.8759     0
-0.8659     0
-0.8559     0
-0.8459     0
-0.8359     0
-0.8259     0
-0.8159     0
-0.8059     0
-0.7959     0
-0.7859     0
-0.7759     0
-0.7659     0
-0.7559     0
-0.7459     0
-0.7359     0
-0.7259     0
-0.7159     0
-0.7059     0
-0.6959     0
-0.6859     0
-0.6759     0
-0.6659     0
-0.6559     0
-0.6459     0
-0.6359     0
-0.6259     0
-0.6159     0
-0.6059     0
-0.5959     0
-0.5859     0
-0.5759     0
-0.5659     0
-0.5559     0
-0.5459     0
-0.5359     0
-0.5259     0
-0.5159     0
-0.5059     0
-0.4959     0
-0.4859     0
-0.4759     0
-0.4659     0
-0.4559     0
-0.4459     0
-0.4359     0
-0.4259     0
-0.4159     0
-0.4059     0
-0.3959     0
-0.3859     0
-0.3759     0
-0.3659     0
-0.3559     0
-0.3459     0
-0.3359     0
-0.3259     0
-0.3159     0
-0.3059     0
-0.2959     0
-0.2859     0
-0.2759     0
-0.2659     0
-0.2559     0
-0.2459     0
-0.2359     0
-0.2259     0
-0.2159     0
-0.2059     0
-0.1959     0
-0.1859     0
-0.1759     0
-0.1659     0
-0.1559     0
-0.1459     0
-0.1359     0
-0.1259     0
-0.1159     3
-0.1059     8
-0.0959    40
-0.0859   227
-0.0759   642
-0.0659  1913
-0.0559  4857
-0.0459 10482
-0.0359 19523
-0.0259 31262
-0.0159 42962
-0.0059 50559
 0.0041 50545
 0.0141 43723
 0.0241 32299
 0.0341 20422
 0.0441 11010
 0.0541  5174
 0.0641  2058
 0.0741   729
 0.0841   232
 0.0941    54
 0.1041    16
 0.1141     6
 0.1241     5
 0.1341     4
 0.1441     4
 0.1541    10
 0.1641     2
 0.1741    23
 0.1841   165
 0.1941   325
 0.2041   282
 0.2141   305
 0.2241   289
 0.2341   293
 0.2441   270
 0.2541   276
 0.2641   286
 0.2741   244
 0.2841   266
 0.2941   280
 0.3041   287
 0.3141   288
 0.3241   261
 0.3341   283
 0.3441   285
 0.3541   282
 0.3641   257
 0.3741   259
 0.3841   278
 0.3941   267
 0.4041   256
 0.4141   244
 0.4241   257
 0.4341   252
 0.4441   214
 0.4541   211
 0.4641   231
 0.4741   230
 0.4841   240
 0.4941   226
 0.5041   240
 0.5141   235
 0.5241   255
 0.5341   252
 0.5441   243
 0.5541   222
 0.5641   238
 0.5741   240
 0.5841   226
 0.5941   228
 0.6041   221
 0.6141   207
 0.6241   218
 0.6341   235
 0.6441   216
 0.6541   203
 0.6641   219
 0.6741   222
 0.6841   220
 0.6941   221
 0.7041   217
 0.7141   202
 0.7241   204
 0.7341   207
 0.7441   203
 0.7541   205
 0.7641   205
 0.7741   209
 0.7841   216
 0.7941   194
 0.8041   188
 0.8141   211
 0.8241   203
 0.8341   198
 0.8441   213
 0.8541   200
 0.8641   192
 0.8741   188
 0.8841   188
 0.8941   186
 0.9041   188
 0.9141   216
 0.9241   215
 0.9341   189
 0.9441   197
 0.9541   182
 0.9641   182
 0.9741   162
 0.9841   171
 0.9941   175
 1.0041   190
 1.0141   207
 1.0241   202
 1.0341   160
 1.0441   162
 1.0541   181
 1.0641   188
 1.0741   179
 1.0841   181
 1.0941   196
 1.1041   171
 1.1141   185
 1.1241   185
 1.1341   191
 1.1441   160
 1.1541   170
 1.1641   158
 1.1741   164
 1.1841   166
 1.1941   177
 1.2041   171
 1.2141   173
 1.2241   176
 1.2341   194
 1.2441   181
 1.2541   161
 1.2641   152
 1.2741   153
 1.2841   170
 1.2941   163
 1.3041   175
 1.3141   141
 1.3241   187
 1.3341   162
 1.3441   174
 1.3541   165
 1.3641   186
 1.3741   169
 1.3841   172
 1.3941   185
 1.4041   176
 1.4141   150
 1.4241   161
 1.4341   180
 1.4441   167
 1.4541   146
 1.4641   161
 1.4741   159
 1.4841   165
 1.4941   180
 1.5041   153
 1.5141   151
 1.5241   154
 1.5341   157
 1.5441   162
 1.5541   158
 1.5641   152
 1.5741   185
 1.5841   160
 1.5941   146
 1.6041   153
 1.6141   152
 1.6241   146
 1.6341   147
 1.6441   179
 1.6541   196
 1.6641   242
 1.6741   267
 1.6841   346
 1.6941   435
 1.7041   542
 1.7141   535
 1.7241   633
 1.7341   697
 1.7441   681
 1.7541   665
 1.7641   584
 1.7741   516
 1.7841   408
 1.7941   318
 1.8041   270
 1.8141   216
 1.8241   203
 1.8341   202
 1.8441   219
 1.8541   190
 1.8641   166
 1.8741   166
 1.8841   160
 1.8941   151
 1.9041   147
 1.9141   176
 1.9241   166
 1.9341   178
 1.9441   171
 1.9541   180
 1.9641   175
 1.9741   206
 1.9841   176
 1.9941   168
 2.0041   199
 2.0141   184
 2.0241   186
 2.0341   159
 2.0441   152
 2.0541   175
 2.0641   180
 2.0741   159
 2.0841   149
 2.0941   158
 2.1041   143
 2.1141   141
 2.1241   145
 2.1341   135
 2.1441   152
 2.1541   138
 2.1641   146
 2.1741   144
 2.1841   159
 2.1941   160
 2.2041   144
 2.2141   180
 2.2241   141
 2.2341   152
 2.2441   128
 2.2541   133
 2.2641   165
 2.2741   127
 2.2841   149
 2.2941   117
 2.3041   152
 2.3141   133
 2.3241   135
 2.3341   117
 2.3441   127
 2.3541   127
 2.3641   121
 2.3741   138
 2.3841   104
 2.3941   121
 2.4041   142
 2.4141   138
 2.4241   136
 2.4341   104
 2.4441   107
 2.4541   129
 2.4641   119
 2.4741   113
 2.4841   119
 2.4941   111
 2.5041   114
 2.5141   126
 2.5241   125
 2.5341   115
 2.5441   129
 2.5541   113
 2.5641   120
 2.5741   107
 2.5841   123
 2.5941   124
 2.6041   118
 2.6141   124
 2.6241   134
 2.6341   110
 2.6441   135
 2.6541   108
 2.6641   113
 2.6741   106
 2.6841   120
 2.6941   102
 2.7041   118
 2.7141   118
 2.7241   117
 2.7341   107
 2.7441   113
 2.7541   120
 2.7641   113
 2.7741   119
 2.7841   116
 2.7941   107
 2.8041   106
 2.8141   130
 2.8241   137
 2.8341   114
 2.8441   146
 2.8541   135
 2.8641   123
 2.8741   113
 2.8841   141
 2.8941   136
 2.9041   117
 2.9141   100
 2.9241   121
 2.9341   102
 2.9441   109
 2.9541   113
 2.9641   116
 2.9741    97
 2.9841   107
 2.9941    99
 3.0041   103
 3.0141   110
 3.0241    89
 3.0341    95
 3.0441   115
 3.0541   101
 3.0641   114
 3.0741   114
 3.0841    94
 3.0941    78
 3.1041    98
 3.1141    90
 3.1241    98
 3.1341    91
 3.1441    83
 3.1541    96
 3.1641    89
 3.1741    95
 3.1841    97
 3.1941   106
 3.2041    96
 3.2141   118
 3.2241   131
 3.2341   144
 3.2441   168
 3.2541   193
 3.2641   212
 3.2741   227
 3.2841   252
 3.2941   271
 3.3041   313
 3.3141   280
 3.3241   292
 3.3341   274
 3.3441   256
 3.3541   230
 3.3641   198
 3.3741   183
 3.3841   154
 3.3941   126
 3.4041   113
 3.4141   119
 3.4241   115
 3.4341    98
 3.4441   103
 3.4541    96
 3.4641   112
 3.4741    87
 3.4841    96
 3.4941    94
 3.5041    97
 3.5141   111
 3.5241   109
 3.5341    99
 3.5441   119
 3.5541   135
 3.5641   171
 3.5741   188
 3.5841   214
 3.5941   283
 3.6041   356
 3.6141   420
 3.6241   512
 3.6341   617
 3.6441   701
 3.6541   804
 3.6641   902
 3.6741  1024
 3.6841  1058
 3.6941   991
 3.7041   955
 3.7141   866
 3.7241   768
 3.7341   694
 3.7441   600
 3.7541   455
 3.7641   365
 3.7741   255
 3.7841   207
 3.7941   172
 3.8041   140
 3.8141   105
 3.8241    94
 3.8341    87
 3.8441    83
 3.8541    72
 3.8641    84
 3.8741    83
 3.8841    98
 3.8941    77
 3.9041    82
 3.9141    92
 3.9241    94
 3.9341   119
 3.9441   140
 3.9541   138
 3.9641   161
 3.9741   169
 3.9841   197
 3.9941   186
 4.0041   192
 4.0141   197
 4.0241   202
 4.0341   201
 4.0441   197
 4.0541   154
 4.0641   122
 4.0741   122
 4.0841   123
 4.0941   112
 4.1041   113
 4.1141    89
 4.1241    74
 4.1341    79
 4.1441    71
 4.1541    69
 4.1641    70
 4.1741    71
 4.1841    70
 4.1941    66
 4.2041    51
 4.2141    53
 4.2241    56
 4.2341    62
 4.2441    67
 4.2541    64
 4.2641    62
 4.2741    70
 4.2841    77
 4.2941    63
 4.3041    60
 4.3141    71
 4.3241    75
 4.3341    60
 4.3441    70
 4.3541    78
 4.3641    78
 4.3741    93
 4.3841    88
 4.3941   112
 4.4041   145
 4.4141   159
 4.4241   180
 4.4341   205
 4.4441   258
 4.4541   291
 4.4641   317
 4.4741   347
 4.4841   356
 4.4941   415
 4.5041   409
 4.5141   387
 4.5241   397
 4.5341   348
 4.5441   326
 4.5541   295
 4.5641   226
 4.5741   200
 4.5841   179
 4.5941   143
 4.6041   115
 4.6141    97
 4.6241    94
 4.6341    77
 4.6441    94
 4.6541    76
 4.6641    82
 4.6741    81
 4.6841    57
 4.6941    60
 4.7041    53
 4.7141    87
 4.7241    98
 4.7341    85
 4.7441    82
 4.7541    71
 4.7641    80
 4.7741    88
 4.7841    96
 4.7941    96
 4.8041    94
 4.8141   117
 4.8241   113
 4.8341   116
 4.8441    88
 4.8541   121
 4.8641   129
 4.8741   123
 4.8841   121
 4.8941   151
 4.9041   152
 4.9141   134
 4.9241   140
 4.9341   124
 4.9441   152
 4.9541   145
 4.9641   130
 4.9741   134
 4.9841   122
 4.9941   119
 5.0041   101
 5.0141   118
 5.0241   120
 5.0341    86
 5.0441    92
 5.0541    84
 5.0641    82
 5.0741    78
 5.0841    78
 5.0941    85
 5.1041    76
 5.1141    87
 5.1241    94
 5.1341    86
 5.1441    80
 5.1541    76
 5.1641    83
 5.1741    80
 5.1841    78
 5.1941    77
 5.2041   102
 5.2141    80
 5.2241    88
 5.2341   103
 5.2441    79
 5.2541    79
 5.2641    94
 5.2741    85
 5.2841    93
 5.2941    89
 5.3041   102
 5.3141    96
 5.3241    97
 5.3341    98
 5.3441   125
 5.3541   121
 5.3641   117
 5.3741   133
 5.3841   132
 5.3941   135
 5.4041   113
 5.4141   123
 5.4241   122
 5.4341   135
 5.4441   128
 5.4541   109
 5.4641   116
 5.4741   137
 5.4841    96
 5.4941   100
 5.5041    99
 5.5141    82
 5.5241    83
 5.5341   106
 5.5441    95
 5.5541   107
 5.5641    82
 5.5741    92
 5.5841    87
 5.5941    99
 5.6041    89
 5.6141    72
 5.6241    81
 5.6341    92
 5.6441    77
 5.6541    86
 5.6641    90
 5.6741   101
 5.6841    88
 5.6941    84
 5.7041    90
 5.7141    95
 5.7241    92
 5.7341   124
 5.7441   132
 5.7541   139
 5.7641   164
 5.7741   193
 5.7841   247
 5.7941   307
 5.8041   319
 5.8141   411
 5.8241   468
 5.8341   590
 5.8441   628
 5.8541   685
 5.8641   833
 5.8741   883
 5.8841   887
 5.8941   888
 5.9041   892
 5.9141   862
 5.9241   806
 5.9341   722
 5.9441   618
 5.9541   587
 5.9641   456
 5.9741   386
 5.9841   327
 5.9941   250
 6.0041   252
 6.0141   191
 6.0241   160
 6.0341   156
 6.0441   135
 6.0541   161
 6.0641   129
 6.0741   120
 6.0841   125
 6.0941   127
 6.1041   110
 6.1141   111
 6.1241   104
 6.1341   123
 6.1441   140
 6.1541   129
 6.1641   128
 6.1741   168
 6.1841   162
 6.1941   213
 6.2041   236
 6.2141   318
 6.2241   412
 6.2341   554
 6.2441   766
 6.2541  1019
 6.2641  1345
 6.2741  1892
 6.2841  2510
 6.2941  3259
 6.3041  4231
 6.3141  5450
 6.3241  6771
 6.3341  8053
 6.3441  9229
 6.3541 10736
 6.3641 11907
 6.3741 13031
 6.3841 13505
 6.3941 13982
 6.4041 13969
 6.4141 13541
 6.4241 12546
 6.4341 11604
 6.4441 10617
 6.4541  9200
 6.4641  7736
 6.4741  6445
 6.4841  5150
 6.4941  4127
 6.5041  3242
 6.5141  2426
 6.5241  1704
 6.5341  1296
 6.5441   915
 6.5541   648
 6.5641   453
 6.5741   363
 6.5841   273
 6.5941   209
 6.6041   204
 6.6141   166
 6.6241   172
 6.6341   137
 6.6441   137
 6.6541   143
 6.6641   134
 6.6741   138
 6.6841   122
 6.6941   128
 6.7041   148
 6.7141   120
 6.7241   145
 6.7341   154
 6.7441   127
 6.7541   107
 6.7641   123
 6.7741   138
 6.7841   157
 6.7941   141
 6.8041   161
 6.8141   131
 6.8241   154
 6.8341   185
 6.8441   167
 6.8541   205
 6.8641   201
 6.8741   198
 6.8841   243
 6.8941   302
 6.9041   359
 6.9141   392
 6.9241   511
 6.9341   589
 6.9441   749
 6.9541   883
 6.9641  1044
 6.9741  1267
 6.9841  1387
 6.9941  1652
 7.0041  1888
 7.0141  2049
 7.0241  2181
 7.0341  2402
 7.0441  2473
 7.0541  2480
 7.0641  2375
 7.0741  2378
 7.0841  2230
 7.0941  2038
 7.1041  1817
 7.1141  1641
 7.1241  1476
 7.1341  1196
 7.1441  1077
 7.1541   800
 7.1641   729
 7.1741   567
 7.1841   417
 7.1941   358
 7.2041   324
 7.2141   283
 7.2241   240
 7.2341   231
 7.2441   191
 7.2541   196
 7.2641   187
 7.2741   190
 7.2841   201
 7.2941   213
 7.3041   186
 7.3141   219
 7.3241   205
 7.3341   198
 7.3441   211
 7.3541   248
 7.3641   250
 7.3741   267
 7.3841   256
 7.3941   284
 7.4041   253
 7.4141   294
 7.4241   265
 7.4341   274
 7.4441   290
 7.4541   280
 7.4641   274
 7.4741   275
 7.4841   271
 7.4941   266
 7.5041   259
 7.5141   267
 7.5241   247
 7.5341   246
 7.5441   228
 7.5541   201
 7.5641   183
 7.5741   210
 7.5841   201
 7.5941   190
 7.6041   189
 7.6141   180
 7.6241   191
 7.6341   198
 7.6441   179
 7.6541   180
 7.6641   174
 7.6741   227
 7.6841   201
 7.6941   196
 7.7041   181
 7.7141   203
 7.7241   195
 7.7341   197
 7.7441   202
 7.7541   210
 7.7641   206
 7.7741   225
 7.7841   226
 7.7941   243
 7.8041   223
 7.8141   243
 7.8241   265
 7.8341   254
 7.8441   245
 7.8541   280
 7.8641   271
 7.8741   294
 7.8841   308
 7.8941   301
 7.9041   332
 7.9141   319
 7.9241   320
 7.9341   392
 7.9441   392
 7.9541   429
 7.9641   412
 7.9741   431
 7.9841   505
 7.9941   512
 8.0041   567
 8.0141   642
 8.0241   652
 8.0341   718
 8.0441   761
 8.0541   816
 8.0641   872
 8.0741   914
 8.0841   978
 8.0941   967
 8.1041  1050
 8.1141  1140
 8.1241  1122
 8.1341  1182
 8.1441  1159
 8.1541  1226
 8.1641  1224
 8.1741  1288
 8.1841  1295
 8.1941  1325
 8.2041  1282
 8.2141  1305
 8.2241  1299
 8.2341  1282
 8.2441  1330
 8.2541  1535
 8.2641  1460
 8.2741  1583
 8.2841  1707
 8.2941  1833
 8.3041  2063
 8.3141  2162
 8.3241  2321
 8.3341  2484
 8.3441  2711
 8.3541  2725
 8.3641  3016
 8.3741  3018
 8.3841  3111
 8.3941  3026
 8.4041  3047
 8.4141  2856
 8.4241  2832
 8.4341  2631
 8.4441  2352
 8.4541  2086
 8.4641  1902
 8.4741  1616
 8.4841  1464
 8.4941  1216
 8.5041  1028
 8.5141   855
 8.5241   767
 8.5341   652
 8.5441   566
 8.5541   530
 8.5641   445
 8.5741   410
 8.5841   412
 8.5941   401
 8.6041   411
 8.6141   387
 8.6241   426
 8.6341   401
 8.6441   373
 8.6541   386
 8.6641   383
 8.6741   392
 8.6841   385
 8.6941   351
 8.7041   356
 8.7141   353
 8.7241   331
 8.7341   318
 8.7441   314
 8.7541   285
 8.7641   270
 8.7741   297
 8.7841   309
 8.7941   268
 8.8041   322
 8.8141   311
 8.8241   288
 8.8341   290
 8.8441   274
 8.8541   299
 8.8641   285
 8.8741   289
 8.8841   332
 8.8941   279
 8.9041   286
 8.9141   282
 8.9241   291
 8.9341   329
 8.9441   343
 8.9541   330
 8.9641   323
 8.9741   324
 8.9841   342
 8.9941   333
 9.0041   352
 9.0141   368
 9.0241   355
 9.0341   374
 9.0441   393
 9.0541   389
 9.0641   365
 9.0741   384
 9.0841   425
 9.0941   445
 9.1041   440
 9.1141   474
 9.1241   456
 9.1341   494
 9.1441   530
 9.1541   549
 9.1641   561
 9.1741   589
 9.1841   612
 9.1941   679
 9.2041   718
 9.2141   724
 9.2241   735
 9.2341   757
 9.2441   852
 9.2541   920
 9.2641   932
 9.2741   930
 9.2841   999
 9.2941   987
 9.3041  1051
 9.3141  1034
 9.3241  1107
 9.3341  1183
 9.3441  1199
 9.3541  1187
 9.3641  1197
 9.3741  1204
 9.3841  1280
 9.3941  1264
 9.4041  1275
 9.4141  1311
 9.4241  1310
 9.4341  1333
 9.4441  1308
 9.4541  1355
 9.4641  1368
 9.4741  1342
 9.4841  1440
 9.4941  1411
 9.5041  1505
 9.5141  1518
 9.5241  1554
 9.5341  1607
 9.5441  1662
 9.5541  1796
 9.5641  1894
 9.5741  1966
 9.5841  2036
 9.5941  2173
 9.6041  2257
 9.6141  2418
 9.6241  2545
 9.6341  2578
 9.6441  2721
 9.6541  2700
 9.6641  2724
 9.6741  2689
 9.6841  2683
 9.6941  2574
 9.7041  2440
 9.7141  2296
 9.7241  2187
 9.7341  2090
 9.7441  1941
 9.7541  1830
 9.7641  1624
 9.7741  1538
 9.7841  1389
 9.7941  1315
 9.8041  1254
 9.8141  1179
 9.8241  1112
 9.8341  1033
 9.8441  1075
 9.8541  1080
 9.8641  1040
 9.8741  1077
 9.8841  1095
 9.8941  1110
 9.9041  1124
 9.9141  1131
 9.9241  1159
 9.9341  1168
 9.9441  1209
 9.9541  1162
 9.9641  1163
 9.9741  1182
 9.9841  1124
 9.9941  1048
10.0041  1009
10.0141   947
10.0241   870
10.0341   820
10.0441   715
10.0541   649
10.0641   561
10.0741   506
10.0841   491
10.0941   423
10.1041   388
10.1141   358
10.1241   323
10.1341   288
10.1441   276
10.1541   259
10.1641   268
10.1741   252
10.1841   232
10.1941   203
10.2041   206
10.2141   186
10.2241   211
10.2341   199
10.2441   193
10.2541   176
10.2641   175
10.2741   171
10.2841   184
10.2941   176
10.3041   170
10.3141   151
10.3241   157
10.3341   168
10.3441   178
10.3541   156
10.3641   162
10.3741   160
10.3841   150
10.3941   144
10.4041   145
10.4141   155
10.4241   145
10.4341   141
10.4441   166
10.4541   171
10.4641   171
10.4741   166
10.4841   183
10.4941   169
10.5041   170
10.5141   191
10.5241   181
10.5341   176
10.5441   192
10.5541   194
10.5641   188
10.5741   170
10.5841   154
10.5941   163
10.6041   194
10.6141   192
10.6241   193
10.6341   186
10.6441   201
10.6541   211
10.6641   196
10.6741   199
10.6841   203
10.6941   199
10.7041   213
10.7141   216
10.7241   220
10.7341   239
10.7441   244
10.7541   233
10.7641   232
10.7741   226
10.7841   249
10.7941   277
10.8041   254
10.8141   273
10.8241   258
10.8341   265
10.8441   275
10.8541   278
10.8641   277
10.8741   269
10.8841   278
10.8941   285
10.9041   294
10.9141   290
10.9241   306
10.9341   294
10.9441   302
10.9541   308
10.9641   298
10.9741   277
10.9841   274
10.9941   257
11.0041   261
11.0141   243
11.0241   230
11.0341   249
11.0441   246
11.0541   240
11.0641   245
11.0741   255
11.0841   253
11.0941   264
11.1041   260
11.1141   253
11.1241   242
11.1341   264
11.1441   279
11.1541   260
11.1641   279
11.1741   279
11.1841   289
11.1941   310
11.2041   309
11.2141   333
11.2241   346
11.2341   387
11.2441   365
11.2541   370
11.2641   389
11.2741   417
11.2841   397
11.2941   415
11.3041   401
11.3141   389
11.3241   384
11.3341   396
11.3441   358
11.3541   321
11.3641   304
11.3741   303
11.3841   272
11.3941   264
11.4041   261
11.4141   257
11.4241   232
11.4341   224
11.4441   226
11.4541   226
11.4641   217
11.4741   205
11.4841   200
11.4941   193
11.5041   184
11.5141   190
11.5241   188
11.5341   207
11.5441   198
11.5541   183
11.5641   188
11.5741   197
11.5841   207
11.5941   214
11.6041   205
11.6141   216
11.6241   202
11.6341   217
11.6441   197
11.6541   201
11.6641   204
11.6741   196
11.6841   198
11.6941   202
11.7041   196
11.7141   185
11.7241   185
11.7341   176
11.7441   177
11.7541   173
11.7641   184
11.7741   181
11.7841   164
11.7941   166
11.8041   156
11.8141   158
11.8241   151
11.8341   156
11.8441   165
11.8541   163
11.8641   169
11.8741   166
11.8841   169
11.8941   179
11.9041   170
11.9141   161
11.9241   165
11.9341   168
11.9441   169
11.9541   165
11.9641   160
11.9741   153
11.9841   170
11.9941   162
12.0041   165
12.0141   159
12.0241   158
12.0341   151
12.0441   168
12.0541   169
12.0641   153
12.0741   156
12.0841   147
12.0941   154
12.1041   165
12.1141   158
12.1241   153
12.1341   167
12.1441   168
12.1541   160
12.1641   154
12.1741   163
12.1841   171
12.1941   153
12.2041   135
12.2141   153
12.2241   148
12.2341   145
12.2441   140
12.2541   151
12.2641   160
12.2741   166
12.2841   153
12.2941   146
12.3041   159
12.3141   160
12.3241   160
12.3341   152
12.3441   160
12.3541   162
12.3641   166
12.3741   162
12.3841   167
12.3941   151
12.4041   145
12.4141   163
12.4241   145
12.4341   166
12.4441   169
12.4541   155
12.4641   167
12.4741   178
12.4841   165
12.4941   174
12.5041   168
12.5141   158
12.5241   159
12.5341   173
12.5441   191
12.5541   173
12.5641   174
12.5741   184
12.5841   174
12.5941   175
12.6041   184
12.6141   197
12.6241   177
12.6341   169
12.6441   169
12.6541   165
12.6641   174
12.6741   176
12.6841   169
12.6941   169
12.7041   168
12.7141   173
12.7241   189
12.7341   189
12.7441   190
12.7541   178
12.7641   175
12.7741   181
12.7841   181
12.7941   188
12.8041   199
12.8141   199
12.8241   187
12.8341   177
12.8441   174
12.8541   172
12.8641   178
12.8741   190
12.8841   192
12.8941   187
12.9041   189
12.9141   194
12.9241   199
12.9341   205
12.9441   200
12.9541   188
12.9641   183
12.9741   187
12.9841   186
12.9941   185
13.0041   192
13.0141   197
13.0241   193
13.0341   192
13.0441   196
13.0541   196
13.0641   195
13.0741   196
13.0841   197
13.0941   196
13.1041   194
13.1141   192
13.1241   193
13.1341   198
13.1441   209
13.1541   219
13.1641   211
13.1741   197
13.1841   193
13.1941   200
13.2041   223
13.2141   231
13.2241   237
13.2341   254
13.2441   274
13.2541   263
13.2641   253
13.2741   272
13.2841   272
13.2941   303
13.3041   308
13.3141   292
13.3241   317
13.3341   345
13.3441   330
13.3541   335
13.3641   354
13.3741   349
13.3841   354
13.3941   357
13.4041   355
13.4141   338
13.4241   325
13.4341   324
13.4441   314
13.4541   291
13.4641   284
13.4741   296
13.4841   285
13.4941   271
13.5041   264
13.5141   256
13.5241   237
13.5341   239
13.5441   248
13.5541   238
13.5641   245
13.5741   253
13.5841   244
13.5941   236
13.6041   232
13.6141   231
13.6241   223
13.6341   222
13.6441   230
13.6541   236
13.6641   240
13.6741   236
13.6841   227
13.6941   223
13.7041   222
13.7141   228
13.7241   242
13.7341   230
13.7441   225
13.7541   238
13.7641   239
13.7741   237
13.7841   225
13.7941   221
13.8041   236
13.8141   246
13.8241   249
13.8341   248
13.8441   245
13.8541   236
13.8641   219
13.8741   229
13.8841   263
13.8941   261
13.9041   244
13.9141   254
13.9241   270
13.9341   254
13.9441   244
13.9541   251
13.9641   280
13.9741   306
13.9841   291
13.9941   308
14.0041   331
14.0141   339
14.0241   343
14.0341   357
14.0441   402
14.0541   404
14.0641   403
14.0741   427
14.0841   431
14.0941   430
14.1041   443
14.1141   475
14.1241   483
14.1341   456
14.1441   460
14.1541   491
14.1641   495
14.1741   486
14.1841   468
14.1941   453
14.2041   429
14.2141   403
14.2241   410
14.2341   402
14.2441   386
14.2541   376
14.2641   354
14.2741   334
14.2841   317
14.2941   309
14.3041   307
14.3141   313
14.3241   290
14.3341   279
14.3441   286
14.3541   271
14.3641   265
14.3741   282
14.3841   271
14.3941   275
14.4041   283
14.4141   280
14.4241   270
14.4341   259
14.4441   265
14.4541   272
14.4641   283
14.4741   295
14.4841   307
14.4941   307
14.5041   285
14.5141   265
14.5241   271
14.5341   275
14.5441   271
14.5541   279
14.5641   305
14.5741   302
14.5841   293
14.5941   295
14.6041   283
14.6141   308
14.6241   307
14.6341   293
14.6441   294
14.6541   287
14.6641   273
14.6741   290
14.6841   304
14.6941   288
14.7041   291
14.7141   304
14.7241   292
14.7341   303
14.7441   308
14.7541   297
14.7641   295
14.7741   288
14.7841   295
14.7941   294
14.8041   288
14.8141   294
14.8241   307
14.8341   313
14.8441   329
14.8541   361
14.8641   348
14.8741   337
14.8841   350
14.8941   357
14.9041   363
14.9141   338
14.9241   325
14.9341   358
14.9441   384
14.9541   382
14.9641   359
14.9741   365
14.9841   376
14.9941   377
15.0041   364
15.0141   357
15.0241   356
15.0341   349
15.0441   338
15.0541   345
15.0641   348
15.0741   323
15.0841   323
15.0941   339
15.1041   331
15.1141   341
15.1241   342
15.1341   335
15.1441   330
15.1541   344
15.1641   334
15.1741   327
15.1841   331
15.1941   344
15.2041   354
15.2141   350
15.2241   333
15.2341   322
15.2441   335
15.2541   341
15.2641   330
15.2741   325
15.2841   350
15.2941   354
15.3041   323
15.3141   317
15.3241   314
15.3341   330
15.3441   337
15.3541   317
15.3641   323
15.3741   327
15.3841   339
15.3941   332
15.4041   342
15.4141   333
15.4241   331
15.4341   336
15.4441   331
15.4541   343
15.4641   353
15.4741   348
15.4841   364
15.4941   385
15.5041   377
15.5141   375
15.5241   376
15.5341   381
15.5441   396
15.5541   407
15.5641   405
15.5741   419
15.5841   436
15.5941   467
15.6041   493
15.6141   514
15.6241   559
15.6341   586
15.6441   587
15.6541   581
15.6641   626
15.6741   660
15.6841   694
15.6941   699
15.7041   740
15.7141   747
15.7241   741
15.7341   775
15.7441   769
15.7541   774
15.7641   757
15.7741   774
15.7841   774
15.7941   757
15.8041   753
15.8141   711
15.8241   699
15.8341   704
15.8441   673
15.8541   618
15.8641   608
15.8741   575
15.8841   543
15.8941   519
15.9041   509
15.9141   491
15.9241   480
15.9341   474
15.9441   439
15.9541   426
15.9641   416
15.9741   399
15.9841   410
15.9941   389
16.0041   369
16.0141   379
16.0241   391
16.0341   394
16.0441   394
16.0541   396
16.0641   389
16.0741   377
16.0841   393
16.0941   387
16.1041   409
16.1141   403
16.1241   384
16.1341   392
16.1441   398
16.1541   384
16.1641   386
16.1741   399
16.1841   407
16.1941   379
16.2041   402
16.2141   406
16.2241   395
16.2341   395
16.2441   368
16.2541   374
16.2641   373
16.2741   396
16.2841   392
16.2941   384
16.3041   398
16.3141   398
16.3241   404
16.3341   412
16.3441   407
16.3541   391
16.3641   388
16.3741   392
16.3841   386
16.3941   397
16.4041   401
16.4141   400
16.4241   404
16.4341   429
16.4441   441
16.4541   439
16.4641   423
16.4741   437
16.4841   442
16.4941   436
16.5041   440
16.5141   465
16.5241   429
16.5341   425
16.5441   458
16.5541   465
16.5641   452
16.5741   435
16.5841   440
16.5941   473
16.6041   461
16.6141   447
16.6241   440
16.6341   467
16.6441   466
16.6541   439
16.6641   442
16.6741   458
16.6841   464
16.6941   476
16.7041   446
16.7141   419
16.7241   425
16.7341   426
16.7441   417
16.7541   407
16.7641   441
16.7741   464
16.7841   453
16.7941   442
16.8041   418
16.8141   430
16.8241   437
16.8341   443
16.8441   447
16.8541   449
16.8641   443
16.8741   443
16.8841   430
16.8941   444
16.9041   454
16.9141   437
16.9241   425
16.9341   422
16.9441   438
16.9541   415
16.9641   411
16.9741   439
16.9841   445
16.9941   469
17.0041   426
17.0141   446
17.0241   435
17.0341   439
17.0441   439
17.0541   445
17.0641   440
17.0741   425
17.0841   454
17.0941   468
17.1041   437
17.1141   454
17.1241   450
17.1341   425
17.1441   450
17.1541   465
17.1641   480
17.1741   457
17.1841   478
17.1941   482
17.2041   490
17.2141   471
17.2241   459
17.2341   444
17.2441   432
17.2541   481
17.2641   487
17.2741   478
17.2841   477
17.2941   472
17.3041   434
17.3141   453
17.3241   451
17.3341   461
17.3441   496
17.3541   488
17.3641   503
17.3741   502
17.3841   511
17.3941   490
17.4041   483
17.4141   475
17.4241   483
17.4341   486
17.4441   478
17.4541   468
17.4641   473
17.4741   479
17.4841   496
17.4941   519
17.5041   499
17.5141   496
17.5241   521
17.5341   543
17.5441   516
17.5541   495
17.5641   507
17.5741   524
17.5841   550
17.5941   532
17.6041   515
17.6141   529
17.6241   575
17.6341   551
17.6441   537
17.6541   544
17.6641   566
17.6741   563
17.6841   547
17.6941   552
17.7041   537
17.7141   579
17.7241   540
17.7341   543
17.7441   569
17.7541   537
17.7641   478
17.7741   503
17.7841   499
17.7941   520
17.8041   524
17.8141   528
17.8241   524
17.8341   498
17.8441   496
17.8541   519
17.8641   517
17.8741   530
17.8841   504
17.8941   526
17.9041   525
17.9141   483
17.9241   509
17.9341   490
17.9441   518
17.9541   539
17.9641   497
17.9741   522
17.9841   508
17.9941   532
18.0041   507
18.0141   494
18.0241   502
18.0341   523
18.0441   517
18.0541   517
18.0641   516
18.0741   515
18.0841   509
18.0941   540
18.1041   507
18.1141   520
18.1241   504
18.1341   511
18.1441   521
18.1541   515
18.1641   509
18.1741   514
18.1841   483
18.1941   494
18.2041   512
18.2141   481
18.2241   536
18.2341   534
18.2441   493
18.2541   523
18.2641   521
18.2741   514
18.2841   479
18.2941   513
18.3041   496
18.3141   520
18.3241   517
18.3341   517
18.3441   532
18.3541   524
18.3641   520
18.3741   514
18.3841   526
18.3941   520
18.4041   531
18.4141   554
18.4241   541
18.4341   519
18.4441   526
18.4541   511
18.4641   517
18.4741   545
18.4841   559
18.4941   516
18.5041   529
18.5141   541
18.5241   522
18.5341   522
18.5441   506
18.5541   503
18.5641   510
18.5741   532
18.5841   551
18.5941   527
18.6041   542
18.6141   542
18.6241   503
18.6341   535
18.6441   543
18.6541   535
18.6641   531
18.6741   525
18.6841   526
18.6941   501
18.7041   525
18.7141   565
18.7241   588
18.7341   518
18.7441   530
18.7541   524
18.7641   523
18.7741   539
18.7841   547
18.7941   506
18.8041   523
18.8141   544
18.8241   535
18.8341   544
18.8441   535
18.8541   539
18.8641   551
18.8741   539
18.8841   521
18.8941   512
18.9041   531
18.9141   535
18.9241   523
18.9341   522
18.9441   544
18.9541   551
18.9641   561
18.9741   547
18.9841   530
18.9941   559
19.0041   591
19.0141   549
19.0241   550
19.0341   534
19.0441   578
19.0541   576
19.0641   550
19.0741   539
19.0841   536
19.0941   530
19.1041   554
19.1141   574
19.1241   525
19.1341   513
19.1441   538
19.1541   557
19.1641   568
19.1741   555
19.1841   536
19.1941   521
19.2041   552
19.2141   548
19.2241   532
19.2341   544
19.2441   547
19.2541   526
19.2641   525
19.2741   551
19.2841   567
19.2941   559
19.3041   582
19.3141   594
19.3241   596
19.3341   532
19.3441   571
19.3541   584
19.3641   575
19.3741   563
19.3841   563
19.3941   570
19.4041   560
19.4141   516
19.4241   544
19.4341   563
19.4441   609
19.4541   568
19.4641   553
19.4741   563
19.4841   545
19.4941   563
19.5041   547
19.5141   601
19.5241   606
19.5341   553
19.5441   558
19.5541   579
19.5641   579
19.5741   559
19.5841   599
19.5941   594
19.6041   587
19.6141   552
19.6241   547
19.6341   560
19.6441   548
19.6541   544
19.6641   567
19.6741   561
19.6841   575
19.6941   582
19.7041   560
19.7141   596
19.7241   549
19.7341   609
19.7441   636
19.7541   572
19.7641   546
19.7741   580
19.7841   570
19.7941   568
19.8041   544
19.8141   537
19.8241   552
19.8341   608
19.8441   585
19.8541   565
19.8641   561
19.8741   599
19.8841   589
19.8941   585
19.9041   569
19.9141   577
19.9241   613
19.9341   581
19.9441   566
19.9541   575
19.9641   572
19.9741   561
19.9841   534
19.9941   559
20.0041   539
20.0141   555
20.0241   590
20.0341   574
20.0441   527
20.0541   545
20.0641   594
20.0741   572
20.0841   557
20.0941   589
20.1041   582
20.1141   586
20.1241   595
20.1341   565
20.1441   540
20.1541   562
20.1641   577
20.1741   608
20.1841   576
20.1941   556
20.2041   580
20.2141   589
20.2241   557
20.2341   564
20.2441   579
20.2541   583
20.2641   575
20.2741   558
20.2841   539
20.2941   579
20.3041   589
20.3141   596
20.3241   570
20.3341   594
20.3441   590
20.3541   569
20.3641   592
20.3741   589
20.3841   577
20.3941   576
20.4041   611
20.4141   602
20.4241   578
20.4341   539
20.4441   549
20.4541   580
20.4641   603
20.4741   587
20.4841   581
20.4941   563
20.5041   607
20.5141   577
20.5241   589
20.5341   596
20.5441   538
20.5541   572
20.5641   598
20.5741   599
20.5841   536
20.5941   556
20.6041   610
20.6141   614
20.6241   627
20.6341   616
20.6441   558
20.6541   551
20.6641   565
20.6741   598
20.6841   594
20.6941   590
20.7041   580
20.7141   578
20.7241   587
20.7341   581
20.7441   595
20.7541   595
20.7641   599
20.7741   622
20.7841   589
20.7941   564
20.8041   574
20.8141   590
20.8241   576
20.8341   612
20.8441   631
20.8541   606
20.8641   620
20.8741   617
20.8841   617
20.8941   699
20.9041   690
20.9141   687
20.9241   656
20.9341   721
20.9441   695
20.9541   698
20.9641   676
20.9741   701
20.9841   726
20.9941   774
21.0041   816
21.0141   744
21.0241   790
21.0341   795
21.0441   836
21.0541   769
21.0641   830
21.0741   779
21.0841   825
21.0941   838
21.1041   822
21.1141   868
21.1241   832
21.1341   823
21.1441   774
21.1541   807
21.1641   877
21.1741   772
21.1841   789
21.1941   840
21.2041   784
21.2141   756
21.2241   787
21.2341   794
21.2441   778
21.2541   727
21.2641   699
21.2741   697
21.2841   691
21.2941   734
21.3041   700
21.3141   656
21.3241   640
21.3341   649
21.3441   650
21.3541   675
21.3641   591
21.3741   641
21.3841   617
21.3941   564
21.4041   589
21.4141   570
21.4241   596
21.4341   609
21.4441   582
21.4541   558
21.4641   601
21.4741   607
21.4841   564
21.4941   596
21.5041   611
21.5141   586
21.5241   565
21.5341   595
21.5441   572
21.5541   564
21.5641   556
21.5741   577
21.5841   549
21.5941   596
21.6041   589
21.6141   591
21.6241   610
21.6341   564
21.6441   610
21.6541   595
21.6641   566
21.6741   572
21.6841   587
21.6941   588
21.7041   602
21.7141   591
21.7241   562
21.7341   559
21.7441   584
21.7541   576
21.7641   599
21.7741   545
21.7841   575
21.7941   590
21.8041   572
21.8141   578
21.8241   576
21.8341   552
21.8441   564
21.8541   617
21.8641   573
21.8741   583
21.8841   566
21.8941   567
21.9041   553
21.9141   558
21.9241   580
21.9341   587
21.9441   531
21.9541   582
21.9641   598
21.9741   552
21.9841   598
21.9941   601
22.0041   584
22.0141   571
22.0241   556
22.0341   556
22.0441   573
22.0541   547
22.0641   582
22.0741   600
22.0841   572
22.0941   609
22.1041   538
22.1141   561
22.1241   546
22.1341   599
22.1441   576
22.1541   568
22.1641   606
22.1741   553
22.1841   587
22.1941   589
22.2041   617
22.2141   594
22.2241   581
22.2341   552
22.2441   581
22.2541   575
22.2641   579
22.2741   580
22.2841   597
22.2941   572
22.3041   574
22.3141   539
22.3241   578
22.3341   615
22.3441   561
22.3541   605
22.3641   574
22.3741   540
22.3841   529
22.3941   595
22.4041   545
22.4141   583
22.4241   558
22.4341   537
22.4441   558
22.4541   527
22.4641   591
22.4741   553
22.4841   527
22.4941   548
22.5041   561
22.5141   572
22.5241   541
22.5341   584
22.5441   585
22.5541   573
22.5641   557
22.5741   523
22.5841   571
22.5941   592
22.6041   564
22.6141   573
22.6241   538
22.6341   531
22.6441   563
22.6541   580
22.6641   557
22.6741   560
22.6841   552
22.6941   562
22.7041   558
22.7141   554
22.7241   559
22.7341   538
22.7441   575
22.7541   542
22.7641   550
22.7741   541
22.7841   565
22.7941   566
22.8041   530
22.8141   540
22.8241   591
22.8341   549
22.8441   604
22.8541   608
22.8641   575
22.8741   532
22.8841   531
22.8941   515
22.9041   560
22.9141   516
22.9241   568
22.9341   597
22.9441   577
22.9541   545
22.9641   536
22.9741   587
22.9841   495
22.9941   515
23.0041   530
23.0141   515
23.0241   512
23.0341   509
23.0441   542
23.0541   539
23.0641   488
23.0741   536
23.0841   593
23.0941   574
23.1041   540
23.1141   531
23.1241   563
23.1341   568
23.1441   509
23.1541   572
23.1641   526
23.1741   565
23.1841   529
23.1941   522
23.2041   572
23.2141   536
23.2241   533
23.2341   532
23.2441   568
23.2541   532
23.2641   556
23.2741   561
23.2841   576
23.2941   558
23.3041   609
23.3141   563
23.3241   506
23.3341   556
23.3441   498
23.3541   482
23.3641   491
23.3741   535
23.3841   552
23.3941   530
23.4041   515
23.4141   558
23.4241   532
23.4341   508
23.4441   519
23.4541   532
23.4641   504
23.4741   570
23.4841   542
23.4941   558
23.5041   528
23.5141   540
23.5241   521
23.5341   556
23.5441   487
23.5541   501
23.5641   514
23.5741   565
23.5841   523
23.5941   597
23.6041   557
23.6141   542
23.6241   550
23.6341   561
23.6441   576
23.6541   529
23.6641   542
23.6741   541
23.6841   591
23.6941   548
23.7041   573
23.7141   546
23.7241   534
23.7341   551
23.7441   585
23.7541   553
23.7641   558
23.7741   574
23.7841   584
23.7941   600
23.8041   551
23.8141   585
23.8241   515
23.8341   555
23.8441   562
23.8541   602
23.8641   522
23.8741   561
23.8841   588
23.8941   589
23.9041   554
23.9141   523
23.9241   569
23.9341   590
23.9441   525
23.9541   565
23.9641   525
23.9741   505
23.9841   536
23.9941   535
24.0041   490
24.0141   532
24.0241   521
24.0341   576
24.0441   495
24.0541   557
24.0641   499
24.0741   507
24.0841   477
24.0941   479
24.1041   522
24.1141   498
24.1241   532
24.1341   486
24.1441   514
24.1541   480
24.1641   535
24.1741   484
24.1841   531
24.1941   493
24.2041   467
24.2141   535
24.2241   470
24.2341   508
24.2441   540
24.2541   545
24.2641   505
24.2741   523
24.2841   503
24.2941   495
24.3041   509
24.3141   529
24.3241   509
24.3341   504
24.3441   511
24.3541   490
24.3641   479
24.3741   476
24.3841   476
24.3941   490
24.4041   466
24.4141   492
24.4241   516
24.4341   534
24.4441   530
24.4541   541
24.4641   503
24.4741   520
24.4841   505
24.4941   498
24.5041   457
24.5141   468
24.5241   481
24.5341   501
24.5441   488
24.5541   468
24.5641   467
24.5741   477
24.5841   505
24.5941   519
24.6041   476
24.6141   470
24.6241   534
24.6341   502
24.6441   504
24.6541   485
24.6641   523
24.6741   444
24.6841   466
24.6941   482
24.7041   500
24.7141   488
24.7241   504
24.7341   487
24.7441   506
24.7541   504
24.7641   478
24.7741   464
24.7841   482
24.7941   474
24.8041   497
24.8141   490
24.8241   451
24.8341   483
24.8441   468
24.8541   470
24.8641   487
24.8741   517
24.8841   498
24.8941   506
24.9041   452
24.9141   453
24.9241   450
24.9341   454
24.9441   483
24.9541   451
24.9641   461
24.9741   495
24.9841   472
24.9941   462
25.0041   504
25.0141   478
25.0241   492
25.0341   438
25.0441   458
25.0541   504
25.0641   432
25.0741   493
25.0841   477
25.0941   492
25.1041   461
25.1141   484
25.1241   493
25.1341   484
25.1441   496
25.1541   509
25.1641   474
25.1741   496
25.1841   490
25.1941   490
25.2041   505
25.2141   455
25.2241   509
25.2341   489
25.2441   494
25.2541   472
25.2641   484
25.2741   467
25.2841   478
25.2941   502
25.3041   464
25.3141   506
25.3241   474
25.3341   469
25.3441   462
25.3541   459
25.3641   474
25.3741   473
25.3841   485
25.3941   423
25.4041   491
25.4141   476
25.4241   438
25.4341   440
25.4441   461
25.4541   461
25.4641   469
25.4741   441
25.4841   486
25.4941   497
25.5041   480
25.5141   467
25.5241   436
25.5341   430
25.5441   424
25.5541   424
25.5641   446
25.5741   460
25.5841   468
25.5941   462
25.6041   460
25.6141   447
25.6241   479
25.6341   481
25.6441   477
25.6541   456
25.6641   469
25.6741   480
25.6841   470
25.6941   419
25.7041   452
25.7141   471
25.7241   442
25.7341   475
25.7441   445
25.7541   451
25.7641   461
25.7741   453
25.7841   453
25.7941   459
25.8041   438
25.8141   407
25.8241   462
25.8341   452
25.8441   430
25.8541   448
25.8641   430
25.8741   426
25.8841   461
25.8941   439
25.9041   449
25.9141   474
25.9241   462
25.9341   436
25.9441   449
25.9541   439
25.9641   436
25.9741   437
25.9841   445
25.9941   447
26.0041   435
26.0141   431
26.0241   418
26.0341   442
26.0441   436
26.0541   477
26.0641   486
26.0741   424
26.0841   439
26.0941   423
26.1041   402
26.1141   428
26.1241   426
26.1341   416
26.1441   398
26.1541   440
26.1641   460
26.1741   397
26.1841   447
26.1941   448
26.2041   401
26.2141   404
26.2241   425
26.2341   438
26.2441   421
26.2541   445
26.2641   436
26.2741   453
26.2841   435
26.2941   441
26.3041   423
26.3141   415
26.3241   405
26.3341   431
26.3441   407
26.3541   407
26.3641   442
26.3741   446
26.3841   408
26.3941   404
26.4041   393
26.4141   390
26.4241   406
26.4341   439
26.4441   418
26.4541   452
26.4641   426
26.4741   434
26.4841   419
26.4941   449
26.5041   395
26.5141   425
26.5241   408
26.5341   406
26.5441   414
26.5541   431
26.5641   414
26.5741   381
26.5841   405
26.5941   418
26.6041   397
26.6141   433
26.6241   409
26.6341   396
26.6441   414
26.6541   422
26.6641   398
26.6741   397
26.6841   414
26.6941   380
26.7041   398
26.7141   417
26.7241   403
26.7341   422
26.7441   424
26.7541   396
26.7641   425
26.7741   404
26.7841   418
26.7941   404
26.8041   393
26.8141   416
26.8241   373
26.8341   393
26.8441   382
26.8541   389
26.8641   401
26.8741   362
26.8841   380
26.8941   388
26.9041   389
26.9141   406
26.9241   395
26.9341   378
26.9441   383
26.9541   401
26.9641   426
26.9741   395
26.9841   396
26.9941   347
27.0041   385
27.0141   391
27.0241   393
27.0341   411
27.0441   391
27.0541   411
27.0641   377
27.0741   406
27.0841   396
27.0941   354
27.1041   390
27.1141   372
27.1241   390
27.1341   398
27.1441   381
27.1541   399
27.1641   413
27.1741   397
27.1841   401
27.1941   398
27.2041   403
27.2141   366
27.2241   343
27.2341   406
27.2441   383
27.2541   385
27.2641   428
27.2741   378
27.2841   349
27.2941   366
27.3041   368
27.3141   375
27.3241   355
27.3341   378
27.3441   361
27.3541   374
27.3641   374
27.3741   379
27.3841   362
27.3941   365
27.4041   377
27.4141   341
27.4241   392
27.4341   360
27.4441   350
27.4541   376
27.4641   356
27.4741   358
27.4841   372
27.4941   419
27.5041   395
27.5141   408
27.5241   363
27.5341   367
27.5441   352
27.5541   379
27.5641   360
27.5741   368
27.5841   386
27.5941   384
27.6041   363
27.6141   356
27.6241   322
27.6341   364
27.6441   336
27.6541   334
27.6641   360
27.6741   379
27.6841   367
27.6941   350
27.7041   358
27.7141   351
27.7241   370
27.7341   379
27.7441   343
27.7541   366
27.7641   348
27.7741   328
27.7841   371
27.7941   362
27.8041   343
27.8141   351
27.8241   338
27.8341   327
27.8441   350
27.8541   351
27.8641   389
27.8741   369
27.8841   352
27.8941   370
27.9041   355
27.9141   355
27.9241   333
27.9341   326
27.9441   360
27.9541   329
27.9641   355
27.9741   342
27.9841   315
27.9941   340
28.0041   365
28.0141   357
28.0241   359
28.0341   331
28.0441   341
28.0541   340
28.0641   339
28.0741   359
28.0841   334
28.0941   337
28.1041   335
28.1141   322
28.1241   360
28.1341   350
28.1441   364
28.1541   342
28.1641   311
28.1741   349
28.1841   341
28.1941   347
28.2041   333
28.2141   308
28.2241   327
28.2341   340
28.2441   365
28.2541   314
28.2641   347
28.2741   341
28.2841   315
28.2941   327
28.3041   338
28.3141   326
28.3241   313
28.3341   329
28.3441   346
28.3541   346
28.3641   310
28.3741   346
28.3841   362
28.3941   356
28.4041   354
28.4141   359
28.4241   315
28.4341   318
28.4441   336
28.4541   349
28.4641   342
28.4741   317
28.4841   325
28.4941   356
28.5041   310
28.5141   348
28.5241   332
28.5341   346
28.5441   345
28.5541   334
28.5641   322
28.5741   319
28.5841   305
28.5941   375
28.6041   323
28.6141   318
28.6241   313
28.6341   318
28.6441   326
28.6541   343
28.6641   296
28.6741   303
28.6841   286
28.6941   295
28.7041   344
28.7141   324
28.7241   328
28.7341   305
28.7441   313
28.7541   306
28.7641   323
28.7741   333
28.7841   330
28.7941   306
28.8041   279
28.8141   300
28.8241   353
28.8341   298
28.8441   287
28.8541   291
28.8641   293
28.8741   347
28.8841   321
28.8941   288
28.9041   294
28.9141   310
28.9241   311
28.9341   278
28.9441   319
28.9541   305
28.9641   311
28.9741   296
28.9841   313
28.9941   300
29.0041   276
29.0141   295
29.0241   289
29.0341   288
29.0441   299
29.0541   307
29.0641   344
29.0741   302
29.0841   310
29.0941   302
29.1041   280
29.1141   295
29.1241   308
29.1341   281
29.1441   277
29.1541   291
29.1641   297
29.1741   309
29.1841   283
29.1941   292
29.2041   319
29.2141   288
29.2241   294
29.2341   270
29.2441   301
29.2541   304
29.2641   315
29.2741   287
29.2841   313
29.2941   309
29.3041   288
29.3141   292
29.3241   266
29.3341   305
29.3441   287
29.3541   277
29.3641   259
29.3741   281
29.3841   285
29.3941   270
29.4041   295
29.4141   279
29.4241   272
29.4341   288
29.4441   273
29.4541   286
29.4641   298
29.4741   279
29.4841   274
29.4941   279
29.5041   254
29.5141   290
29.5241   266
29.5341   278
29.5441   267
29.5541   285
29.5641   283
29.5741   282
29.5841   270
29.5941   311
29.6041   266
29.6141   258
29.6241   302
29.6341   286
29.6441   268
29.6541   291
29.6641   287
29.6741   262
29.6841   300
29.6941   290
29.7041   288
29.7141   266
29.7241   290
29.7341   282
29.7441   265
29.7541   258
29.7641   248
29.7741   273
29.7841   277
29.7941   272
29.8041   295
29.8141   270
29.8241   293
29.8341   284
29.8441   271
29.8541   257
29.8641   280
29.8741   256
29.8841   278
29.8941   247
29.9041   260
29.9141   262
29.9241   260
29.9341   279
29.9441   248
29.9541   239
29.9641   264
29.9741   263
29.9841   260
29.9941   258
30.0041   277
30.0141   254
30.0241   249
30.0341   283
30.0441   249
30.0541   236
30.0641   244
30.0741   260
30.0841   229
30.0941   269
30.1041   237
30.1141   284
30.1241   245
30.1341   250
30.1441   237
30.1541   268
30.1641   253
30.1741   240
30.1841   256
30.1941   260
30.2041   240
30.2141   248
30.2241   250
30.2341   261
30.2441   235
30.2541   263
30.2641   264
30.2741   268
30.2841   247
30.2941   269
30.3041   263
30.3141   248
30.3241   230
30.3341   247
30.3441   249
30.3541   255
30.3641   258
30.3741   249
30.3841   285
30.3941   248
30.4041   267
30.4141   268
30.4241   240
30.4341   240
30.4441   255
30.4541   247
30.4641   239
30.4741   260
30.4841   252
30.4941   259
30.5041   242
30.5141   238
30.5241   229
30.5341   231
30.5441   257
30.5541   223
30.5641   239
30.5741   242
30.5841   213
30.5941   253
30.6041   233
30.6141   214
30.6241   238
30.6341   234
30.6441   249
30.6541   245
30.6641   220
30.6741   226
30.6841   232
30.6941   240
30.7041   228
30.7141   231
30.7241   226
30.7341   207
30.7441   237
30.7541   230
30.7641   237
30.7741   241
30.7841   228
30.7941   249
30.8041   225
30.8141   234
30.8241   207
30.8341   214
30.8441   244
30.8541   227
30.8641   251
30.8741   237
30.8841   242
30.8941   224
30.9041   221
30.9141   243
30.9241   220
30.9341   234
30.9441   228
30.9541   229
30.9641   231
30.9741   250
30.9841   222
30.9941   223
31.0041   255
31.0141   218
31.0241   244
31.0341   227
31.0441   222
31.0541   236
31.0641   239
31.0741   206
31.0841   231
31.0941   239
31.1041   252
31.1141   215
31.1241   218
31.1341   230
31.1441   228
31.1541   228
31.1641   224
31.1741   212
31.1841   226
31.1941   233
31.2041   203
31.2141   227
31.2241   232
31.2341   204
31.2441   228
31.2541   189
31.2641   216
31.2741   204
31.2841   225
31.2941   202
31.3041   215
31.3141   215
31.3241   206
31.3341   194
31.3441   217
31.3541   212
31.3641   228
31.3741   213
31.3841   211
31.3941   212
31.4041   221
31.4141   224
31.4241   206
31.4341   205
31.4441   244
31.4541   226
31.4641   204
31.4741   206
31.4841   203
31.4941   220
31.5041   229
31.5141   223
31.5241   217
31.5341   210
31.5441   217
31.5541   197
31.5641   202
31.5741   223
31.5841   217
31.5941   204
31.6041   192
31.6141   199
31.6241   191
31.6341   199
31.6441   193
31.6541   212
31.6641   205
31.6741   207
31.6841   199
31.6941   197
31.7041   204
31.7141   195
31.7241   213
31.7341   219
31.7441   216
31.7541   217
31.7641   188
31.7741   208
31.7841   178
31.7941   220
31.8041   215
31.8141   220
31.8241   195
31.8341   191
31.8441   191
31.8541   192
31.8641   175
31.8741   190
31.8841   225
31.8941   185
31.9041   206
31.9141   201
31.9241   196
31.9341   203
31.9441   199
31.9541   184
31.9641   217
31.9741   200
31.9841   228
31.9941   227
32.0041   179
32.0141   175
32.0241   201
32.0341   188
32.0441   206
32.0541   203
32.0641   217
32.0741   202
32.0841   219
32.0941   228
32.1041   177
32.1141   206
32.1241   199
32.1341   212
32.1441   196
32.1541   205
32.1641   194
32.1741   189
32.1841   210
32.1941   198
32.2041   195
32.2141   226
32.2241   207
32.2341   189
32.2441   156
32.2541   181
32.2641   201
32.2741   204
32.2841   193
32.2941   194
32.3041   187
32.3141   172
32.3241   185
32.3341   188
32.3441   206
32.3541   170
32.3641   205
32.3741   186
32.3841   192
32.3941   191
32.4041   201
32.4141   174
32.4241   186
32.4341   183
32.4441   190
32.4541   185
32.4641   187
32.4741   196
32.4841   195
32.4941   204
32.5041   161
32.5141   178
32.5241   178
32.5341   162
32.5441   161
32.5541   171
32.5641   157
32.5741   166
32.5841   176
32.5941   164
32.6041   168
32.6141   175
32.6241   187
32.6341   176
32.6441   168
32.6541   191
32.6641   162
32.6741   175
32.6841   180
32.6941   173
32.7041   183
32.7141   173
32.7241   142
32.7341   160
32.7441   155
32.7541   169
32.7641   173
32.7741   154
32.7841   149
32.7941   172
32.8041   164
32.8141   163
32.8241   163
32.8341   162
32.8441   180
32.8541   192
32.8641   168
32.8741   162
32.8841   157
32.8941   160
32.9041   160
32.9141   163
32.9241   174
32.9341   151
32.9441   166
32.9541   147
32.9641   155
32.9741   161
32.9841   172
32.9941   160
33.0041   148
33.0141   154
33.0241   160
33.0341   158
33.0441   168
33.0541   151
33.0641   180
33.0741   157
33.0841   171
33.0941   182
33.1041   138
33.1141   169
33.1241   169
33.1341   155
33.1441   170
33.1541   155
33.1641   146
33.1741   156
33.1841   125
33.1941   157
33.2041   150
33.2141   169
33.2241   176
33.2341   172
33.2441   134
33.2541   148
33.2641   160
33.2741   143
33.2841   153
33.2941   137
33.3041   149
33.3141   147
33.3241   160
33.3341   157
33.3441   133
33.3541   129
33.3641   144
33.3741   161
33.3841   148
33.3941   141
33.4041   142
33.4141   149
33.4241   150
33.4341   154
33.4441   143
33.4541   155
33.4641   164
33.4741   143
33.4841   132
33.4941   125
33.5041   130
33.5141   138
33.5241   124
33.5341   157
33.5441   138
33.5541   123
33.5641   140
33.5741   149
33.5841   159
33.5941   147
33.6041   163
33.6141   150
33.6241   155
33.6341   138
33.6441   140
33.6541   144
33.6641   142
33.6741   147
33.6841   138
33.6941   153
33.7041   144
33.7141   160
33.7241   135
33.7341   145
33.7441   130
33.7541   154
33.7641   136
33.7741   139
33.7841   155
33.7941   129
33.8041   149
33.8141   134
33.8241   124
33.8341   143
33.8441   143
33.8541   136
33.8641   131
33.8741   142
33.8841   141
33.8941   127
33.9041   129
33.9141   132
33.9241   138
33.9341   129
33.9441   121
33.9541   139
33.9641   152
33.9741   132
33.9841   143
33.9941   142
34.0041   136
34.0141   122
34.0241   114
34.0341   136
34.0441   120
34.0541   123
34.0641   127
34.0741   131
34.0841   137
34.0941   146
34.1041   130
34.1141   159
34.1241   138
34.1341   122
34.1441   139
34.1541   119
34.1641   113
34.1741   116
34.1841   136
34.1941   141
34.2041   143
34.2141   130
34.2241   147
34.2341   120
34.2441   113
34.2541   125
34.2641   126
34.2741   135
34.2841   112
34.2941   129
34.3041   128
34.3141   138
34.3241   110
34.3341   133
34.3441   151
34.3541   110
34.3641   124
34.3741   133
34.3841   125
34.3941   121
34.4041   133
34.4141   109
34.4241   128
34.4341   118
34.4441   124
34.4541   119
34.4641   131
34.4741   106
34.4841   132
34.4941   117
34.5041   129
34.5141   120
34.5241   117
34.5341   118
34.5441   116
34.5541   103
34.5641   119
34.5741   118
34.5841   103
34.5941   110
34.6041   116
34.6141   108
34.6241   134
34.6341   115
34.6441   120
34.6541   111
34.6641   104
34.6741   110
34.6841   114
34.6941   122
34.7041    97
34.7141   124
34.7241   143
34.7341   111
34.7441   110
34.7541   124
34.7641   109
34.7741   113
34.7841   111
34.7941   125
34.8041   114
34.8141   102
34.8241   120
34.8341   125
34.8441   140
34.8541   103
34.8641   110
34.8741   100
34.8841   106
34.8941   123
34.9041    98
34.9141   113
34.9241   119
34.9341   106
34.9441   119
34.9541   110
34.9641   115
34.9741   103
34.9841    89
34.9941   116
35.0041    93
35.0141   105
35.0241    97
35.0341   120
35.0441   108
35.0541   105
35.0641   128
35.0741   110
35.0841   109
35.0941   130
35.1041   146
35.1141   117
35.1241    89
35.1341   102
35.1441   124
35.1541   119
35.1641   108
35.1741   118
35.1841   101
35.1941   124
35.2041   105
35.2141    93
35.2241   104
35.2341   102
35.2441   101
35.2541   106
35.2641   120
35.2741    95
35.2841    97
35.2941   105
35.3041    83
35.3141   117
35.3241   107
35.3341    88
35.3441   104
35.3541   108
35.3641   107
35.3741   109
35.3841    98
35.3941   104
35.4041    94
35.4141    84
35.4241    96
35.4341   106
35.4441    81
35.4541    92
35.4641   101
35.4741   106
35.4841    96
35.4941    91
35.5041    97
35.5141   100
35.5241   100
35.5341   116
35.5441   108
35.5541   106
35.5641    97
35.5741    98
35.5841   100
35.5941   100
35.6041    99
35.6141   100
35.6241    83
35.6341   100
35.6441    81
35.6541    80
35.6641   106
35.6741    97
35.6841    77
35.6941    91
35.7041    90
35.7141   106
35.7241   105
35.7341    98
35.7441    91
35.7541   103
35.7641    97
35.7741    84
35.7841   110
35.7941    76
35.8041    84
35.8141    99
35.8241   104
35.8341    80
35.8441   100
35.8541    86
35.8641    94
35.8741    94
35.8841    84
35.8941    90
35.9041    84
35.9141    90
35.9241    98
35.9341    77
35.9441    79
35.9541   102
35.9641    91
35.9741    86
35.9841    85
35.9941   101
36.0041    80
36.0141    77
36.0241    90
36.0341    85
36.0441    86
36.0541    99
36.0641    98
36.0741    91
36.0841    96
36.0941    92
36.1041    84
36.1141    73
36.1241    87
36.1341    87
36.1441    86
36.1541    92
36.1641    89
36.1741    90
36.1841    83
36.1941    80
36.2041    98
36.2141    66
36.2241    90
36.2341    91
36.2441    90
36.2541    76
36.2641    77
36.2741    71
36.2841    75
36.2941    82
36.3041    66
36.3141    66
36.3241    77
36.3341    90
36.3441    91
36.3541    80
36.3641    89
36.3741    84
36.3841    70
36.3941    91
36.4041    82
36.4141    82
36.4241    76
36.4341    79
36.4441    93
36.4541    86
36.4641    80
36.4741    88
36.4841    87
36.4941    87
36.5041    85
36.5141    87
36.5241    84
36.5341    75
36.5441    75
36.5541    74
36.5641    81
36.5741    68
36.5841    84
36.5941    91
36.6041    78
36.6141    77
36.6241    72
36.6341    75
36.6441    63
36.6541    79
36.6641    73
36.6741    80
36.6841    77
36.6941    74
36.7041    93
36.7141    67
36.7241    77
36.7341    77
36.7441    78
36.7541    75
36.7641    61
36.7741    60
36.7841    76
36.7941    72
36.8041    77
36.8141    74
36.8241    80
36.8341    67
36.8441    67
36.8541    75
36.8641    72
36.8741    64
36.8841    74
36.8941    76
36.9041    82
36.9141    75
36.9241    75
36.9341    73
36.9441    62
36.9541    75
36.9641    75
36.9741    67
36.9841    77
36.9941    72
37.0041    76
37.0141    68
37.0241    75
37.0341    74
37.0441    75
37.0541    76
37.0641    74
37.0741    65
37.0841    50
37.0941    64
37.1041    66
37.1141    86
37.1241    80
37.1341    64
37.1441    75
37.1541    67
37.1641    60
37.1741    57
37.1841    57
37.1941    70
37.2041    73
37.2141    72
37.2241    75
37.2341    62
37.2441    55
37.2541    69
37.2641    65
37.2741    84
37.2841    49
37.2941    73
37.3041    64
37.3141    63
37.3241    60
37.3341    57
37.3441    59
37.3541    62
37.3641    72
37.3741    64
37.3841    63
37.3941    59
37.4041    63
37.4141    60
37.4241    78
37.4341    60
37.4441    62
37.4541    63
37.4641    64
37.4741    65
37.4841    71
37.4941    52
37.5041    64
37.5141    66
37.5241    67
37.5341    54
37.5441    54
37.5541    73
37.5641    60
37.5741    59
37.5841    62
37.5941    59
37.6041    67
37.6141    68
37.6241    52
37.6341    74
37.6441    61
37.6541    57
37.6641    53
37.6741    54
37.6841    57
37.6941    57
37.7041    58
37.7141    64
37.7241    62
37.7341    56
37.7441    44
37.7541    50
37.7641    49
37.7741    62
37.7841    49
37.7941    70
37.8041    69
37.8141    54
37.8241    69
37.8341    69
37.8441    53
37.8541    54
37.8641    67
37.8741    76
37.8841    41
37.8941    47
37.9041    56
37.9141    64
37.9241    71
37.9341    66
37.9441    55
37.9541    51
37.9641    57
37.9741    60
37.9841    51
37.9941    54
38.0041    55
38.0141    49
38.0241    47
38.0341    54
38.0441    43
38.0541    45
38.0641    49
38.0741    48
38.0841    46
38.0941    55
38.1041    43
38.1141    61
38.1241    47
38.1341    50
38.1441    44
38.1541    47
38.1641    43
38.1741    42
38.1841    44
38.1941    67
38.2041    63
38.2141    55
38.2241    54
38.2341    52
38.2441    56
38.2541    35
38.2641    44
38.2741    50
38.2841    50
38.2941    34
38.3041    49
38.3141    40
38.3241    57
38.3341    46
38.3441    38
38.3541    48
38.3641    52
38.3741    44
38.3841    61
38.3941    51
38.4041    46
38.4141    37
38.4241    43
38.4341    42
38.4441    42
38.4541    49
38.4641    28
38.4741    50
38.4841    47
38.4941    36
38.5041    56
38.5141    60
38.5241    43
38.5341    43
38.5441    39
38.5541    40
38.5641    39
38.5741    44
38.5841    43
38.5941    52
38.6041    49
38.6141    38
38.6241    47
38.6341    55
38.6441    40
38.6541    49
38.6641    43
38.6741    32
38.6841    34
38.6941    39
38.7041    39
38.7141    46
38.7241    50
38.7341    38
38.7441    43
38.7541    39
38.7641    45
38.7741    52
38.7841    49
38.7941    43
38.8041    46
38.8141    44
38.8241    37
38.8341    39
38.8441    47
38.8541    44
38.8641    47
38.8741    43
38.8841    53
38.8941    45
38.9041    37
38.9141    45
38.9241    45
38.9341    38
38.9441    40
38.9541    46
38.9641    49
38.9741    43
38.9841    40
38.9941    44
39.0041    33
39.0141    36
39.0241    50
39.0341    38
39.0441    37
39.0541    31
39.0641    40
39.0741    38
39.0841    41
39.0941    32
39.1041    42
39.1141    38
39.1241    45
39.1341    46
39.1441    34
39.1541    38
39.1641    28
39.1741    33
39.1841    38
39.1941    38
39.2041    34
39.2141    31
39.2241    51
39.2341    34
39.2441    39
39.2541    38
39.2641    36
39.2741    36
39.2841    45
39.2941    44
39.3041    40
39.3141    28
39.3241    45
39.3341    24
39.3441    29
39.3541    40
39.3641    35
39.3741    34
39.3841    35
39.3941    32
39.4041    36
39.4141    33
39.4241    31
39.4341    49
39.4441    32
39.4541    35
39.4641    33
39.4741    37
39.4841    32
39.4941    29
39.5041    32
39.5141    44
39.5241    39
39.5341    44
39.5441    30
39.5541    35
39.5641    26
39.5741    31
39.5841    32
39.5941    45
39.6041    28
39.6141    31
39.6241    36
39.6341    35
39.6441    28
39.6541    29
39.6641    32
39.6741    35
39.6841    33
39.6941    33
39.7041    37
39.7141    28
39.7241    31
39.7341    36
39.7441    22
39.7541    31
39.7641    35
39.7741    21
39.7841    28
39.7941    29
39.8041    33
39.8141    37
39.8241    21
39.8341    33
39.8441    25
39.8541    22
39.8641    31
39.8741    22
39.8841    32
39.8941    30
39.9041    24
39.9141    38
39.9241    31
39.9341    22
39.9441    27
39.9541    30
39.9641    20
39.9741    18
39.9841    18
