Bruker Nano GmbH Berlin, Germany
Esprit 1.9

Date: 4/1/2021 4:09:09 PM
Real time: 26847
Life time: 25227
Pulse density: 87149


Detector type: XFlash 430
Window type: Custom type
Detector thickness: 0.45
Si dead layer:0.029

Calibration, lin.: 10
Calibration, abs.: -955.9
Mn FWHM: 137.05
Fano factor: 0.121
Channels: 4096

Energy Counts
-0.9559     0
-0.9459     0
-0.9359     0
-0.9259     0
-0.9159     0
-0.9059     0
-0.8959     0
-0.8859     0
-0.8759     0
-0.8659     0
-0.8559     0
-0.8459     0
-0.8359     0
-0.8259     0
-0.8159     0
-0.8059     0
-0.7959     0
-0.7859     0
-0.7759     0
-0.7659     0
-0.7559     0
-0.7459     0
-0.7359     0
-0.7259     0
-0.7159     0
-0.7059     0
-0.6959     0
-0.6859     0
-0.6759     0
-0.6659     0
-0.6559     0
-0.6459     0
-0.6359     0
-0.6259     0
-0.6159     0
-0.6059     0
-0.5959     0
-0.5859     0
-0.5759     0
-0.5659     0
-0.5559     0
-0.5459     0
-0.5359     0
-0.5259     0
-0.5159     0
-0.5059     0
-0.4959     0
-0.4859     0
-0.4759     0
-0.4659     0
-0.4559     0
-0.4459     0
-0.4359     0
-0.4259     0
-0.4159     0
-0.4059     0
-0.3959     0
-0.3859     0
-0.3759     0
-0.3659     0
-0.3559     0
-0.3459     0
-0.3359     0
-0.3259     0
-0.3159     0
-0.3059     0
-0.2959     0
-0.2859     0
-0.2759     0
-0.2659     0
-0.2559     0
-0.2459     0
-0.2359     0
-0.2259     0
-0.2159     0
-0.2059     0
-0.1959     0
-0.1859     0
-0.1759     0
-0.1659     0
-0.1559     0
-0.1459     1
-0.1359     0
-0.1259     1
-0.1159     6
-0.1059    17
-0.0959    79
-0.0859   279
-0.0759   957
-0.0659  2856
-0.0559  7305
-0.0459 16156
-0.0359 30250
-0.0259 47913
-0.0159 65714
-0.0059 77315
 0.0041 77934
 0.0141 67463
 0.0241 49103
 0.0341 31239
 0.0441 16538
 0.0541  7990
 0.0641  3139
 0.0741  1102
 0.0841   346
 0.0941    99
 0.1041    32
 0.1141    17
 0.1241    11
 0.1341    14
 0.1441    10
 0.1541     9
 0.1641     6
 0.1741     5
 0.1841   242
 0.1941   469
 0.2041   412
 0.2141   439
 0.2241   426
 0.2341   429
 0.2441   426
 0.2541   423
 0.2641   418
 0.2741   432
 0.2841   454
 0.2941   430
 0.3041   424
 0.3141   443
 0.3241   417
 0.3341   405
 0.3441   397
 0.3541   383
 0.3641   407
 0.3741   383
 0.3841   375
 0.3941   424
 0.4041   407
 0.4141   414
 0.4241   414
 0.4341   413
 0.4441   399
 0.4541   397
 0.4641   378
 0.4741   374
 0.4841   391
 0.4941   355
 0.5041   375
 0.5141   352
 0.5241   348
 0.5341   382
 0.5441   359
 0.5541   352
 0.5641   359
 0.5741   356
 0.5841   361
 0.5941   352
 0.6041   312
 0.6141   333
 0.6241   339
 0.6341   346
 0.6441   346
 0.6541   320
 0.6641   314
 0.6741   311
 0.6841   323
 0.6941   356
 0.7041   351
 0.7141   338
 0.7241   331
 0.7341   324
 0.7441   332
 0.7541   329
 0.7641   308
 0.7741   311
 0.7841   345
 0.7941   329
 0.8041   298
 0.8141   308
 0.8241   306
 0.8341   299
 0.8441   316
 0.8541   327
 0.8641   321
 0.8741   309
 0.8841   317
 0.8941   332
 0.9041   278
 0.9141   286
 0.9241   304
 0.9341   290
 0.9441   296
 0.9541   284
 0.9641   273
 0.9741   285
 0.9841   289
 0.9941   269
 1.0041   285
 1.0141   296
 1.0241   280
 1.0341   270
 1.0441   280
 1.0541   304
 1.0641   315
 1.0741   305
 1.0841   270
 1.0941   282
 1.1041   272
 1.1141   263
 1.1241   267
 1.1341   259
 1.1441   262
 1.1541   266
 1.1641   263
 1.1741   280
 1.1841   259
 1.1941   263
 1.2041   266
 1.2141   274
 1.2241   279
 1.2341   271
 1.2441   230
 1.2541   252
 1.2641   241
 1.2741   258
 1.2841   249
 1.2941   262
 1.3041   260
 1.3141   259
 1.3241   282
 1.3341   257
 1.3441   241
 1.3541   244
 1.3641   264
 1.3741   264
 1.3841   243
 1.3941   261
 1.4041   268
 1.4141   244
 1.4241   251
 1.4341   248
 1.4441   263
 1.4541   271
 1.4641   266
 1.4741   255
 1.4841   262
 1.4941   237
 1.5041   232
 1.5141   272
 1.5241   254
 1.5341   274
 1.5441   254
 1.5541   222
 1.5641   242
 1.5741   237
 1.5841   246
 1.5941   236
 1.6041   232
 1.6141   262
 1.6241   231
 1.6341   242
 1.6441   246
 1.6541   304
 1.6641   364
 1.6741   397
 1.6841   495
 1.6941   635
 1.7041   737
 1.7141   896
 1.7241   997
 1.7341  1026
 1.7441   994
 1.7541   965
 1.7641   917
 1.7741   762
 1.7841   635
 1.7941   540
 1.8041   465
 1.8141   420
 1.8241   363
 1.8341   333
 1.8441   305
 1.8541   311
 1.8641   294
 1.8741   294
 1.8841   251
 1.8941   257
 1.9041   242
 1.9141   269
 1.9241   254
 1.9341   272
 1.9441   266
 1.9541   290
 1.9641   276
 1.9741   299
 1.9841   298
 1.9941   283
 2.0041   301
 2.0141   306
 2.0241   289
 2.0341   275
 2.0441   271
 2.0541   283
 2.0641   264
 2.0741   252
 2.0841   273
 2.0941   230
 2.1041   251
 2.1141   244
 2.1241   232
 2.1341   204
 2.1441   210
 2.1541   235
 2.1641   225
 2.1741   230
 2.1841   222
 2.1941   213
 2.2041   217
 2.2141   215
 2.2241   190
 2.2341   221
 2.2441   200
 2.2541   212
 2.2641   229
 2.2741   196
 2.2841   217
 2.2941   220
 2.3041   218
 2.3141   234
 2.3241   197
 2.3341   198
 2.3441   204
 2.3541   217
 2.3641   219
 2.3741   201
 2.3841   216
 2.3941   219
 2.4041   192
 2.4141   186
 2.4241   193
 2.4341   207
 2.4441   207
 2.4541   212
 2.4641   203
 2.4741   183
 2.4841   197
 2.4941   193
 2.5041   171
 2.5141   166
 2.5241   211
 2.5341   209
 2.5441   214
 2.5541   181
 2.5641   203
 2.5741   197
 2.5841   171
 2.5941   187
 2.6041   192
 2.6141   184
 2.6241   187
 2.6341   192
 2.6441   191
 2.6541   221
 2.6641   202
 2.6741   186
 2.6841   170
 2.6941   184
 2.7041   176
 2.7141   197
 2.7241   174
 2.7341   192
 2.7441   180
 2.7541   205
 2.7641   197
 2.7741   169
 2.7841   198
 2.7941   196
 2.8041   200
 2.8141   209
 2.8241   176
 2.8341   213
 2.8441   198
 2.8541   197
 2.8641   199
 2.8741   182
 2.8841   196
 2.8941   162
 2.9041   159
 2.9141   176
 2.9241   182
 2.9341   163
 2.9441   168
 2.9541   180
 2.9641   181
 2.9741   158
 2.9841   180
 2.9941   166
 3.0041   152
 3.0141   178
 3.0241   164
 3.0341   159
 3.0441   195
 3.0541   169
 3.0641   152
 3.0741   174
 3.0841   159
 3.0941   149
 3.1041   176
 3.1141   160
 3.1241   158
 3.1341   154
 3.1441   168
 3.1541   171
 3.1641   145
 3.1741   143
 3.1841   167
 3.1941   159
 3.2041   152
 3.2141   148
 3.2241   171
 3.2341   192
 3.2441   195
 3.2541   223
 3.2641   258
 3.2741   253
 3.2841   254
 3.2941   278
 3.3041   299
 3.3141   273
 3.3241   297
 3.3341   276
 3.3441   241
 3.3541   237
 3.3641   242
 3.3741   206
 3.3841   197
 3.3941   186
 3.4041   175
 3.4141   173
 3.4241   148
 3.4341   147
 3.4441   144
 3.4541   156
 3.4641   169
 3.4741   161
 3.4841   155
 3.4941   156
 3.5041   173
 3.5141   185
 3.5241   176
 3.5341   202
 3.5441   227
 3.5541   279
 3.5641   329
 3.5741   419
 3.5841   559
 3.5941   733
 3.6041   979
 3.6141  1283
 3.6241  1619
 3.6341  2032
 3.6441  2549
 3.6541  3047
 3.6641  3481
 3.6741  3847
 3.6841  3884
 3.6941  3923
 3.7041  3852
 3.7141  3421
 3.7241  3107
 3.7341  2615
 3.7441  2199
 3.7541  1676
 3.7641  1270
 3.7741   927
 3.7841   679
 3.7941   537
 3.8041   371
 3.8141   267
 3.8241   197
 3.8341   193
 3.8441   170
 3.8541   167
 3.8641   145
 3.8741   157
 3.8841   163
 3.8941   176
 3.9041   212
 3.9141   230
 3.9241   297
 3.9341   348
 3.9441   390
 3.9541   476
 3.9641   539
 3.9741   607
 3.9841   676
 3.9941   727
 4.0041   769
 4.0141   778
 4.0241   751
 4.0341   721
 4.0441   686
 4.0541   611
 4.0641   534
 4.0741   446
 4.0841   366
 4.0941   288
 4.1041   252
 4.1141   180
 4.1241   178
 4.1341   143
 4.1441   130
 4.1541   131
 4.1641   114
 4.1741   103
 4.1841   143
 4.1941   129
 4.2041   100
 4.2141   114
 4.2241    91
 4.2341    96
 4.2441   110
 4.2541   120
 4.2641   125
 4.2741    99
 4.2841    99
 4.2941    87
 4.3041    94
 4.3141   121
 4.3241   118
 4.3341   123
 4.3441   110
 4.3541   106
 4.3641   118
 4.3741   140
 4.3841   143
 4.3941   152
 4.4041   188
 4.4141   213
 4.4241   221
 4.4341   264
 4.4441   341
 4.4541   400
 4.4641   408
 4.4741   504
 4.4841   567
 4.4941   590
 4.5041   573
 4.5141   563
 4.5241   542
 4.5341   559
 4.5441   457
 4.5541   408
 4.5641   375
 4.5741   315
 4.5841   279
 4.5941   237
 4.6041   190
 4.6141   165
 4.6241   161
 4.6341   143
 4.6441   144
 4.6541   113
 4.6641   144
 4.6741   132
 4.6841   121
 4.6941   130
 4.7041   131
 4.7141   102
 4.7241    96
 4.7341   116
 4.7441   107
 4.7541   134
 4.7641   119
 4.7741   121
 4.7841   128
 4.7941   116
 4.8041   131
 4.8141   142
 4.8241   132
 4.8341   144
 4.8441   173
 4.8541   143
 4.8641   162
 4.8741   174
 4.8841   172
 4.8941   182
 4.9041   197
 4.9141   193
 4.9241   203
 4.9341   201
 4.9441   190
 4.9541   190
 4.9641   182
 4.9741   195
 4.9841   186
 4.9941   151
 5.0041   169
 5.0141   158
 5.0241   128
 5.0341   127
 5.0441   123
 5.0541   120
 5.0641   118
 5.0741   127
 5.0841   129
 5.0941   113
 5.1041   134
 5.1141   117
 5.1241   130
 5.1341   118
 5.1441   118
 5.1541   134
 5.1641   118
 5.1741   121
 5.1841   115
 5.1941   137
 5.2041   124
 5.2141   116
 5.2241   119
 5.2341   135
 5.2441   133
 5.2541   100
 5.2641   109
 5.2741   136
 5.2841   127
 5.2941   120
 5.3041   121
 5.3141   146
 5.3241   119
 5.3341   130
 5.3441   141
 5.3541   137
 5.3641   137
 5.3741   123
 5.3841   142
 5.3941   127
 5.4041   131
 5.4141   147
 5.4241   138
 5.4341   153
 5.4441   118
 5.4541   132
 5.4641   130
 5.4741   121
 5.4841   124
 5.4941   126
 5.5041   124
 5.5141   147
 5.5241   108
 5.5341   139
 5.5441   154
 5.5541   131
 5.5641   125
 5.5741   129
 5.5841   138
 5.5941   119
 5.6041   128
 5.6141   130
 5.6241    95
 5.6341   116
 5.6441   139
 5.6541   137
 5.6641   129
 5.6741   153
 5.6841   119
 5.6941   134
 5.7041   111
 5.7141   125
 5.7241   152
 5.7341   156
 5.7441   163
 5.7541   162
 5.7641   181
 5.7741   185
 5.7841   235
 5.7941   268
 5.8041   273
 5.8141   315
 5.8241   384
 5.8341   403
 5.8441   458
 5.8541   470
 5.8641   522
 5.8741   571
 5.8841   577
 5.8941   610
 5.9041   596
 5.9141   572
 5.9241   518
 5.9341   493
 5.9441   455
 5.9541   394
 5.9641   390
 5.9741   326
 5.9841   264
 5.9941   252
 6.0041   229
 6.0141   186
 6.0241   162
 6.0341   173
 6.0441   162
 6.0541   160
 6.0641   164
 6.0741   145
 6.0841   156
 6.0941   158
 6.1041   170
 6.1141   166
 6.1241   156
 6.1341   164
 6.1441   172
 6.1541   158
 6.1641   181
 6.1741   191
 6.1841   183
 6.1941   226
 6.2041   284
 6.2141   334
 6.2241   399
 6.2341   530
 6.2441   705
 6.2541   951
 6.2641  1300
 6.2741  1656
 6.2841  2301
 6.2941  3003
 6.3041  3880
 6.3141  4863
 6.3241  6055
 6.3341  7165
 6.3441  8492
 6.3541  9658
 6.3641 10507
 6.3741 11610
 6.3841 12016
 6.3941 12369
 6.4041 12394
 6.4141 11826
 6.4241 11439
 6.4341 10427
 6.4441  9290
 6.4541  8028
 6.4641  6707
 6.4741  5684
 6.4841  4542
 6.4941  3421
 6.5041  2779
 6.5141  2023
 6.5241  1487
 6.5341  1143
 6.5441   815
 6.5541   568
 6.5641   487
 6.5741   377
 6.5841   279
 6.5941   241
 6.6041   238
 6.6141   178
 6.6241   185
 6.6341   169
 6.6441   195
 6.6541   180
 6.6641   162
 6.6741   183
 6.6841   203
 6.6941   180
 6.7041   211
 6.7141   170
 6.7241   211
 6.7341   182
 6.7441   190
 6.7541   209
 6.7641   191
 6.7741   201
 6.7841   196
 6.7941   198
 6.8041   194
 6.8141   214
 6.8241   257
 6.8341   195
 6.8441   241
 6.8541   239
 6.8641   268
 6.8741   275
 6.8841   320
 6.8941   346
 6.9041   399
 6.9141   428
 6.9241   501
 6.9341   634
 6.9441   686
 6.9541   815
 6.9641   973
 6.9741  1149
 6.9841  1326
 6.9941  1483
 7.0041  1724
 7.0141  1814
 7.0241  2020
 7.0341  2125
 7.0441  2144
 7.0541  2216
 7.0641  2198
 7.0741  2129
 7.0841  1942
 7.0941  1876
 7.1041  1664
 7.1141  1434
 7.1241  1319
 7.1341  1088
 7.1441   932
 7.1541   761
 7.1641   713
 7.1741   578
 7.1841   443
 7.1941   391
 7.2041   348
 7.2141   309
 7.2241   322
 7.2341   279
 7.2441   290
 7.2541   269
 7.2641   255
 7.2741   273
 7.2841   262
 7.2941   296
 7.3041   292
 7.3141   297
 7.3241   307
 7.3341   313
 7.3441   315
 7.3541   322
 7.3641   345
 7.3741   362
 7.3841   354
 7.3941   393
 7.4041   350
 7.4141   339
 7.4241   336
 7.4341   341
 7.4441   356
 7.4541   350
 7.4641   333
 7.4741   317
 7.4841   281
 7.4941   284
 7.5041   302
 7.5141   256
 7.5241   275
 7.5341   295
 7.5441   299
 7.5541   274
 7.5641   245
 7.5741   240
 7.5841   272
 7.5941   258
 7.6041   236
 7.6141   266
 7.6241   279
 7.6341   266
 7.6441   267
 7.6541   273
 7.6641   292
 7.6741   269
 7.6841   275
 7.6941   269
 7.7041   305
 7.7141   292
 7.7241   311
 7.7341   330
 7.7441   318
 7.7541   335
 7.7641   332
 7.7741   333
 7.7841   328
 7.7941   351
 7.8041   341
 7.8141   349
 7.8241   391
 7.8341   395
 7.8441   385
 7.8541   378
 7.8641   411
 7.8741   433
 7.8841   396
 7.8941   416
 7.9041   439
 7.9141   483
 7.9241   537
 7.9341   514
 7.9441   573
 7.9541   611
 7.9641   625
 7.9741   622
 7.9841   713
 7.9941   752
 8.0041   825
 8.0141   898
 8.0241   920
 8.0341   996
 8.0441  1100
 8.0541  1150
 8.0641  1197
 8.0741  1277
 8.0841  1387
 8.0941  1447
 8.1041  1519
 8.1141  1599
 8.1241  1600
 8.1341  1819
 8.1441  1752
 8.1541  1855
 8.1641  1905
 8.1741  1940
 8.1841  1991
 8.1941  1955
 8.2041  1958
 8.2141  2042
 8.2241  2128
 8.2341  2111
 8.2441  2137
 8.2541  2338
 8.2641  2377
 8.2741  2572
 8.2841  2719
 8.2941  2896
 8.3041  3240
 8.3141  3431
 8.3241  3684
 8.3341  3957
 8.3441  4162
 8.3541  4385
 8.3641  4594
 8.3741  4704
 8.3841  4915
 8.3941  4780
 8.4041  4840
 8.4141  4551
 8.4241  4362
 8.4341  4015
 8.4441  3613
 8.4541  3303
 8.4641  2856
 8.4741  2576
 8.4841  2206
 8.4941  1827
 8.5041  1584
 8.5141  1388
 8.5241  1146
 8.5341   952
 8.5441   823
 8.5541   730
 8.5641   671
 8.5741   622
 8.5841   654
 8.5941   556
 8.6041   579
 8.6141   574
 8.6241   531
 8.6341   528
 8.6441   548
 8.6541   570
 8.6641   553
 8.6741   489
 8.6841   502
 8.6941   533
 8.7041   488
 8.7141   530
 8.7241   523
 8.7341   494
 8.7441   500
 8.7541   523
 8.7641   457
 8.7741   445
 8.7841   445
 8.7941   448
 8.8041   431
 8.8141   460
 8.8241   460
 8.8341   447
 8.8441   473
 8.8541   468
 8.8641   482
 8.8741   464
 8.8841   484
 8.8941   462
 8.9041   491
 8.9141   488
 8.9241   487
 8.9341   472
 8.9441   471
 8.9541   508
 8.9641   502
 8.9741   511
 8.9841   489
 8.9941   541
 9.0041   565
 9.0141   583
 9.0241   561
 9.0341   594
 9.0441   635
 9.0541   629
 9.0641   592
 9.0741   623
 9.0841   632
 9.0941   678
 9.1041   675
 9.1141   723
 9.1241   753
 9.1341   770
 9.1441   765
 9.1541   807
 9.1641   843
 9.1741   915
 9.1841   928
 9.1941   987
 9.2041  1013
 9.2141  1046
 9.2241  1113
 9.2341  1159
 9.2441  1273
 9.2541  1321
 9.2641  1347
 9.2741  1432
 9.2841  1476
 9.2941  1595
 9.3041  1588
 9.3141  1628
 9.3241  1693
 9.3341  1785
 9.3441  1816
 9.3541  1826
 9.3641  1963
 9.3741  1937
 9.3841  2013
 9.3941  1983
 9.4041  2086
 9.4141  2133
 9.4241  2070
 9.4341  2142
 9.4441  2132
 9.4541  2146
 9.4641  2195
 9.4741  2179
 9.4841  2257
 9.4941  2297
 9.5041  2298
 9.5141  2402
 9.5241  2349
 9.5341  2517
 9.5441  2653
 9.5541  2810
 9.5641  2910
 9.5741  2997
 9.5841  3118
 9.5941  3389
 9.6041  3463
 9.6141  3689
 9.6241  3872
 9.6341  4076
 9.6441  4176
 9.6541  4147
 9.6641  4151
 9.6741  4255
 9.6841  4181
 9.6941  4059
 9.7041  3841
 9.7141  3720
 9.7241  3670
 9.7341  3270
 9.7441  3130
 9.7541  2921
 9.7641  2677
 9.7741  2539
 9.7841  2390
 9.7941  2301
 9.8041  2275
 9.8141  2194
 9.8241  2128
 9.8341  2055
 9.8441  2005
 9.8541  1883
 9.8641  1922
 9.8741  1983
 9.8841  2071
 9.8941  2046
 9.9041  2027
 9.9141  2091
 9.9241  2120
 9.9341  2186
 9.9441  2135
 9.9541  2125
 9.9641  2066
 9.9741  1973
 9.9841  1934
 9.9941  1841
10.0041  1714
10.0141  1631
10.0241  1499
10.0341  1411
10.0441  1206
10.0541  1078
10.0641   995
10.0741   862
10.0841   830
10.0941   701
10.1041   625
10.1141   588
10.1241   563
10.1341   529
10.1441   460
10.1541   426
10.1641   431
10.1741   401
10.1841   392
10.1941   346
10.2041   350
10.2141   329
10.2241   318
10.2341   304
10.2441   284
10.2541   277
10.2641   283
10.2741   286
10.2841   274
10.2941   253
10.3041   264
10.3141   270
10.3241   278
10.3341   262
10.3441   261
10.3541   250
10.3641   253
10.3741   243
10.3841   216
10.3941   225
10.4041   250
10.4141   245
10.4241   255
10.4341   261
10.4441   262
10.4541   276
10.4641   264
10.4741   261
10.4841   260
10.4941   267
10.5041   259
10.5141   274
10.5241   307
10.5341   283
10.5441   301
10.5541   285
10.5641   284
10.5741   296
10.5841   296
10.5941   292
10.6041   292
10.6141   330
10.6241   297
10.6341   288
10.6441   321
10.6541   335
10.6641   315
10.6741   340
10.6841   313
10.6941   323
10.7041   328
10.7141   344
10.7241   318
10.7341   306
10.7441   352
10.7541   343
10.7641   348
10.7741   371
10.7841   386
10.7941   403
10.8041   380
10.8141   387
10.8241   395
10.8341   414
10.8441   422
10.8541   415
10.8641   429
10.8741   460
10.8841   464
10.8941   481
10.9041   482
10.9141   475
10.9241   472
10.9341   459
10.9441   463
10.9541   464
10.9641   440
10.9741   452
10.9841   429
10.9941   428
11.0041   411
11.0141   387
11.0241   422
11.0341   440
11.0441   406
11.0541   404
11.0641   419
11.0741   379
11.0841   379
11.0941   409
11.1041   407
11.1141   403
11.1241   401
11.1341   409
11.1441   414
11.1541   422
11.1641   443
11.1741   487
11.1841   501
11.1941   527
11.2041   521
11.2141   534
11.2241   537
11.2341   590
11.2441   631
11.2541   653
11.2641   658
11.2741   619
11.2841   607
11.2941   653
11.3041   651
11.3141   643
11.3241   603
11.3341   567
11.3441   587
11.3541   550
11.3641   522
11.3741   495
11.3841   446
11.3941   412
11.4041   385
11.4141   366
11.4241   373
11.4341   334
11.4441   319
11.4541   347
11.4641   348
11.4741   328
11.4841   322
11.4941   318
11.5041   319
11.5141   317
11.5241   289
11.5341   311
11.5441   320
11.5541   320
11.5641   330
11.5741   338
11.5841   329
11.5941   334
11.6041   319
11.6141   342
11.6241   358
11.6341   334
11.6441   340
11.6541   330
11.6641   325
11.6741   318
11.6841   329
11.6941   313
11.7041   279
11.7141   286
11.7241   301
11.7341   278
11.7441   276
11.7541   266
11.7641   258
11.7741   241
11.7841   257
11.7941   277
11.8041   269
11.8141   256
11.8241   263
11.8341   254
11.8441   236
11.8541   236
11.8641   242
11.8741   243
11.8841   234
11.8941   240
11.9041   243
11.9141   239
11.9241   258
11.9341   271
11.9441   260
11.9541   232
11.9641   238
11.9741   251
11.9841   256
11.9941   250
12.0041   257
12.0141   274
12.0241   265
12.0341   247
12.0441   255
12.0541   245
12.0641   233
12.0741   239
12.0841   249
12.0941   241
12.1041   263
12.1141   255
12.1241   246
12.1341   235
12.1441   236
12.1541   245
12.1641   242
12.1741   246
12.1841   228
12.1941   237
12.2041   230
12.2141   226
12.2241   234
12.2341   243
12.2441   224
12.2541   222
12.2641   224
12.2741   225
12.2841   239
12.2941   231
12.3041   236
12.3141   233
12.3241   236
12.3341   243
12.3441   224
12.3541   221
12.3641   228
12.3741   241
12.3841   246
12.3941   245
12.4041   239
12.4141   242
12.4241   231
12.4341   231
12.4441   228
12.4541   230
12.4641   220
12.4741   218
12.4841   247
12.4941   244
12.5041   236
12.5141   236
12.5241   228
12.5341   241
12.5441   251
12.5541   244
12.5641   220
12.5741   244
12.5841   273
12.5941   266
12.6041   266
12.6141   256
12.6241   247
12.6341   250
12.6441   278
12.6541   270
12.6641   247
12.6741   242
12.6841   267
12.6941   265
12.7041   260
12.7141   251
12.7241   253
12.7341   259
12.7441   261
12.7541   256
12.7641   266
12.7741   278
12.7841   269
12.7941   249
12.8041   258
12.8141   267
12.8241   256
12.8341   235
12.8441   243
12.8541   262
12.8641   263
12.8741   264
12.8841   262
12.8941   279
12.9041   287
12.9141   252
12.9241   249
12.9341   261
12.9441   267
12.9541   267
12.9641   273
12.9741   275
12.9841   259
12.9941   267
13.0041   265
13.0141   263
13.0241   281
13.0341   290
13.0441   273
13.0541   275
13.0641   269
13.0741   273
13.0841   263
13.0941   260
13.1041   280
13.1141   289
13.1241   279
13.1341   269
13.1441   280
13.1541   273
13.1641   276
13.1741   279
13.1841   274
13.1941   299
13.2041   294
13.2141   293
13.2241   314
13.2341   322
13.2441   320
13.2541   334
13.2641   350
13.2741   365
13.2841   356
13.2941   355
13.3041   359
13.3141   370
13.3241   392
13.3341   393
13.3441   377
13.3541   383
13.3641   388
13.3741   392
13.3841   390
13.3941   384
13.4041   388
13.4141   391
13.4241   374
13.4341   362
13.4441   351
13.4541   343
13.4641   354
13.4741   350
13.4841   345
13.4941   349
13.5041   347
13.5141   338
13.5241   325
13.5341   329
13.5441   322
13.5541   320
13.5641   330
13.5741   322
13.5841   332
13.5941   332
13.6041   318
13.6141   306
13.6241   301
13.6341   317
13.6441   328
13.6541   338
13.6641   329
13.6741   293
13.6841   292
13.6941   312
13.7041   306
13.7141   312
13.7241   324
13.7341   325
13.7441   309
13.7541   298
13.7641   311
13.7741   314
13.7841   336
13.7941   344
13.8041   322
13.8141   310
13.8241   311
13.8341   314
13.8441   308
13.8541   317
13.8641   334
13.8741   324
13.8841   301
13.8941   313
13.9041   327
13.9141   314
13.9241   307
13.9341   328
13.9441   346
13.9541   352
13.9641   360
13.9741   343
13.9841   345
13.9941   367
14.0041   376
14.0141   383
14.0241   386
14.0341   408
14.0441   405
14.0541   395
14.0641   423
14.0741   451
14.0841   465
14.0941   460
14.1041   464
14.1141   460
14.1241   454
14.1341   468
14.1441   503
14.1541   506
14.1641   503
14.1741   515
14.1841   490
14.1941   470
14.2041   456
14.2141   454
14.2241   444
14.2341   435
14.2441   423
14.2541   407
14.2641   395
14.2741   386
14.2841   394
14.2941   368
14.3041   356
14.3141   372
14.3241   380
14.3341   381
14.3441   363
14.3541   364
14.3641   357
14.3741   359
14.3841   385
14.3941   392
14.4041   370
14.4141   336
14.4241   334
14.4341   375
14.4441   382
14.4541   360
14.4641   371
14.4741   387
14.4841   374
14.4941   359
14.5041   360
14.5141   375
14.5241   369
14.5341   358
14.5441   369
14.5541   369
14.5641   367
14.5741   374
14.5841   398
14.5941   375
14.6041   366
14.6141   371
14.6241   377
14.6341   393
14.6441   387
14.6541   373
14.6641   354
14.6741   349
14.6841   376
14.6941   405
14.7041   385
14.7141   356
14.7241   382
14.7341   395
14.7441   393
14.7541   405
14.7641   407
14.7741   384
14.7841   385
14.7941   392
14.8041   412
14.8141   444
14.8241   419
14.8341   417
14.8441   410
14.8541   387
14.8641   407
14.8741   428
14.8841   438
14.8941   441
14.9041   457
14.9141   488
14.9241   455
14.9341   446
14.9441   452
14.9541   449
14.9641   446
14.9741   454
14.9841   460
14.9941   461
15.0041   444
15.0141   426
15.0241   426
15.0341   434
15.0441   438
15.0541   430
15.0641   395
15.0741   423
15.0841   434
15.0941   423
15.1041   412
15.1141   404
15.1241   406
15.1341   390
15.1441   384
15.1541   381
15.1641   405
15.1741   403
15.1841   383
15.1941   396
15.2041   428
15.2141   410
15.2241   406
15.2341   404
15.2441   409
15.2541   415
15.2641   415
15.2741   412
15.2841   406
15.2941   423
15.3041   404
15.3141   407
15.3241   433
15.3341   427
15.3441   435
15.3541   443
15.3641   440
15.3741   416
15.3841   420
15.3941   440
15.4041   407
15.4141   408
15.4241   450
15.4341   468
15.4441   445
15.4541   439
15.4641   439
15.4741   455
15.4841   459
15.4941   472
15.5041   486
15.5141   491
15.5241   491
15.5341   510
15.5441   530
15.5541   551
15.5641   588
15.5741   618
15.5841   672
15.5941   702
15.6041   718
15.6141   746
15.6241   773
15.6341   818
15.6441   822
15.6541   876
15.6641   912
15.6741   950
15.6841  1034
15.6941  1044
15.7041  1079
15.7141  1145
15.7241  1135
15.7341  1161
15.7441  1145
15.7541  1109
15.7641  1118
15.7741  1107
15.7841  1146
15.7941  1121
15.8041  1080
15.8141   995
15.8241   967
15.8341   970
15.8441   905
15.8541   827
15.8641   856
15.8741   798
15.8841   763
15.8941   718
15.9041   674
15.9141   631
15.9241   618
15.9341   566
15.9441   507
15.9541   500
15.9641   529
15.9741   518
15.9841   500
15.9941   484
16.0041   483
16.0141   492
16.0241   501
16.0341   500
16.0441   499
16.0541   447
16.0641   462
16.0741   494
16.0841   469
16.0941   475
16.1041   477
16.1141   460
16.1241   478
16.1341   491
16.1441   513
16.1541   487
16.1641   483
16.1741   507
16.1841   480
16.1941   483
16.2041   483
16.2141   463
16.2241   466
16.2341   489
16.2441   479
16.2541   470
16.2641   476
16.2741   471
16.2841   488
16.2941   490
16.3041   485
16.3141   485
16.3241   459
16.3341   470
16.3441   505
16.3541   491
16.3641   496
16.3741   474
16.3841   479
16.3941   498
16.4041   487
16.4141   498
16.4241   514
16.4341   497
16.4441   495
16.4541   504
16.4641   510
16.4741   491
16.4841   499
16.4941   487
16.5041   514
16.5141   535
16.5241   546
16.5341   531
16.5441   514
16.5541   534
16.5641   560
16.5741   535
16.5841   517
16.5941   501
16.6041   497
16.6141   514
16.6241   533
16.6341   533
16.6441   559
16.6541   551
16.6641   505
16.6741   518
16.6841   539
16.6941   542
16.7041   509
16.7141   521
16.7241   540
16.7341   568
16.7441   540
16.7541   558
16.7641   561
16.7741   520
16.7841   529
16.7941   536
16.8041   565
16.8141   565
16.8241   529
16.8341   546
16.8441   565
16.8541   544
16.8641   537
16.8741   550
16.8841   538
16.8941   545
16.9041   550
16.9141   526
16.9241   543
16.9341   538
16.9441   518
16.9541   526
16.9641   527
16.9741   543
16.9841   539
16.9941   552
17.0041   555
17.0141   535
17.0241   554
17.0341   565
17.0441   545
17.0541   534
17.0641   547
17.0741   564
17.0841   585
17.0941   585
17.1041   544
17.1141   536
17.1241   557
17.1341   560
17.1441   559
17.1541   563
17.1641   549
17.1741   536
17.1841   573
17.1941   570
17.2041   551
17.2141   582
17.2241   559
17.2341   539
17.2441   552
17.2541   567
17.2641   546
17.2741   560
17.2841   559
17.2941   566
17.3041   581
17.3141   572
17.3241   582
17.3341   592
17.3441   616
17.3541   584
17.3641   577
17.3741   581
17.3841   609
17.3941   585
17.4041   558
17.4141   595
17.4241   597
17.4341   570
17.4441   573
17.4541   659
17.4641   621
17.4741   587
17.4841   585
17.4941   625
17.5041   626
17.5141   608
17.5241   621
17.5341   648
17.5441   646
17.5541   653
17.5641   637
17.5741   689
17.5841   686
17.5941   690
17.6041   697
17.6141   705
17.6241   717
17.6341   704
17.6441   713
17.6541   710
17.6641   677
17.6741   711
17.6841   706
17.6941   706
17.7041   709
17.7141   739
17.7241   689
17.7341   686
17.7441   700
17.7541   674
17.7641   660
17.7741   684
17.7841   672
17.7941   684
17.8041   669
17.8141   623
17.8241   634
17.8341   649
17.8441   617
17.8541   622
17.8641   658
17.8741   637
17.8841   652
17.8941   636
17.9041   627
17.9141   613
17.9241   608
17.9341   630
17.9441   668
17.9541   642
17.9641   668
17.9741   667
17.9841   657
17.9941   626
18.0041   631
18.0141   625
18.0241   655
18.0341   619
18.0441   622
18.0541   616
18.0641   627
18.0741   642
18.0841   660
18.0941   653
18.1041   627
18.1141   656
18.1241   694
18.1341   634
18.1441   614
18.1541   608
18.1641   621
18.1741   653
18.1841   654
18.1941   656
18.2041   661
18.2141   669
18.2241   673
18.2341   640
18.2441   666
18.2541   689
18.2641   693
18.2741   651
18.2841   679
18.2941   666
18.3041   639
18.3141   611
18.3241   601
18.3341   640
18.3441   638
18.3541   633
18.3641   647
18.3741   660
18.3841   626
18.3941   651
18.4041   657
18.4141   653
18.4241   672
18.4341   694
18.4441   693
18.4541   693
18.4641   700
18.4741   661
18.4841   683
18.4941   656
18.5041   684
18.5141   640
18.5241   633
18.5341   657
18.5441   658
18.5541   696
18.5641   658
18.5741   666
18.5841   691
18.5941   670
18.6041   663
18.6141   680
18.6241   660
18.6341   644
18.6441   677
18.6541   679
18.6641   679
18.6741   682
18.6841   678
18.6941   650
18.7041   677
18.7141   680
18.7241   667
18.7341   669
18.7441   685
18.7541   677
18.7641   717
18.7741   675
18.7841   719
18.7941   680
18.8041   667
18.8141   677
18.8241   654
18.8341   674
18.8441   694
18.8541   703
18.8641   663
18.8741   681
18.8841   702
18.8941   716
18.9041   692
18.9141   668
18.9241   687
18.9341   688
18.9441   687
18.9541   670
18.9641   683
18.9741   700
18.9841   698
18.9941   703
19.0041   704
19.0141   724
19.0241   682
19.0341   703
19.0441   692
19.0541   684
19.0641   693
19.0741   732
19.0841   691
19.0941   698
19.1041   706
19.1141   715
19.1241   692
19.1341   703
19.1441   709
19.1541   698
19.1641   680
19.1741   688
19.1841   703
19.1941   707
19.2041   695
19.2141   691
19.2241   694
19.2341   701
19.2441   693
19.2541   726
19.2641   726
19.2741   729
19.2841   739
19.2941   694
19.3041   712
19.3141   699
19.3241   702
19.3341   754
19.3441   711
19.3541   672
19.3641   680
19.3741   750
19.3841   740
19.3941   724
19.4041   724
19.4141   720
19.4241   719
19.4341   701
19.4441   671
19.4541   705
19.4641   730
19.4741   690
19.4841   719
19.4941   778
19.5041   757
19.5141   718
19.5241   680
19.5341   737
19.5441   763
19.5541   719
19.5641   714
19.5741   718
19.5841   726
19.5941   732
19.6041   704
19.6141   728
19.6241   751
19.6341   763
19.6441   730
19.6541   696
19.6641   737
19.6741   713
19.6841   773
19.6941   756
19.7041   699
19.7141   710
19.7241   764
19.7341   736
19.7441   720
19.7541   674
19.7641   704
19.7741   794
19.7841   747
19.7941   728
19.8041   756
19.8141   741
19.8241   696
19.8341   750
19.8441   770
19.8541   736
19.8641   738
19.8741   734
19.8841   756
19.8941   771
19.9041   735
19.9141   769
19.9241   712
19.9341   692
19.9441   721
19.9541   757
19.9641   711
19.9741   709
19.9841   743
19.9941   724
20.0041   739
20.0141   771
20.0241   757
20.0341   759
20.0441   745
20.0541   748
20.0641   749
20.0741   735
20.0841   757
20.0941   767
20.1041   740
20.1141   734
20.1241   790
20.1341   757
20.1441   706
20.1541   750
20.1641   765
20.1741   751
20.1841   716
20.1941   752
20.2041   767
20.2141   756
20.2241   769
20.2341   754
20.2441   719
20.2541   762
20.2641   719
20.2741   748
20.2841   751
20.2941   770
20.3041   748
20.3141   764
20.3241   765
20.3341   741
20.3441   777
20.3541   764
20.3641   752
20.3741   753
20.3841   768
20.3941   826
20.4041   783
20.4141   741
20.4241   726
20.4341   792
20.4441   765
20.4541   767
20.4641   726
20.4741   749
20.4841   775
20.4941   753
20.5041   814
20.5141   759
20.5241   797
20.5341   732
20.5441   793
20.5541   754
20.5641   774
20.5741   758
20.5841   744
20.5941   758
20.6041   789
20.6141   790
20.6241   780
20.6341   783
20.6441   785
20.6541   767
20.6641   823
20.6741   784
20.6841   767
20.6941   805
20.7041   774
20.7141   807
20.7241   823
20.7341   772
20.7441   763
20.7541   784
20.7641   811
20.7741   778
20.7841   790
20.7941   859
20.8041   840
20.8141   796
20.8241   833
20.8341   807
20.8441   841
20.8541   837
20.8641   883
20.8741   852
20.8841   852
20.8941   938
20.9041   865
20.9141   883
20.9241   918
20.9341   936
20.9441   953
20.9541   928
20.9641   995
20.9741  1027
20.9841   999
20.9941  1078
21.0041  1100
21.0141  1100
21.0241  1073
21.0341  1074
21.0441  1077
21.0541  1093
21.0641  1155
21.0741  1159
21.0841  1240
21.0941  1189
21.1041  1223
21.1141  1179
21.1241  1183
21.1341  1151
21.1441  1231
21.1541  1167
21.1641  1227
21.1741  1113
21.1841  1220
21.1941  1222
21.2041  1143
21.2141  1100
21.2241  1106
21.2341  1048
21.2441  1085
21.2541  1048
21.2641  1055
21.2741  1006
21.2841  1002
21.2941  1007
21.3041   934
21.3141   939
21.3241   918
21.3341   859
21.3441   843
21.3541   922
21.3641   835
21.3741   843
21.3841   855
21.3941   880
21.4041   836
21.4141   808
21.4241   792
21.4341   782
21.4441   808
21.4541   839
21.4641   774
21.4741   764
21.4841   810
21.4941   756
21.5041   770
21.5141   806
21.5241   816
21.5341   811
21.5441   781
21.5541   818
21.5641   734
21.5741   785
21.5841   723
21.5941   770
21.6041   751
21.6141   797
21.6241   814
21.6341   763
21.6441   761
21.6541   746
21.6641   790
21.6741   780
21.6841   795
21.6941   748
21.7041   764
21.7141   785
21.7241   794
21.7341   788
21.7441   764
21.7541   810
21.7641   813
21.7741   846
21.7841   757
21.7941   784
21.8041   794
21.8141   782
21.8241   780
21.8341   789
21.8441   766
21.8541   803
21.8641   812
21.8741   847
21.8841   794
21.8941   777
21.9041   798
21.9141   834
21.9241   774
21.9341   778
21.9441   758
21.9541   792
21.9641   760
21.9741   755
21.9841   815
21.9941   766
22.0041   785
22.0141   764
22.0241   765
22.0341   762
22.0441   735
22.0541   759
22.0641   778
22.0741   749
22.0841   816
22.0941   785
22.1041   750
22.1141   764
22.1241   767
22.1341   780
22.1441   824
22.1541   733
22.1641   770
22.1741   801
22.1841   773
22.1941   802
22.2041   787
22.2141   766
22.2241   792
22.2341   726
22.2441   764
22.2541   815
22.2641   743
22.2741   725
22.2841   803
22.2941   779
22.3041   773
22.3141   791
22.3241   796
22.3341   778
22.3441   847
22.3541   773
22.3641   810
22.3741   805
22.3841   720
22.3941   754
22.4041   807
22.4141   749
22.4241   780
22.4341   786
22.4441   793
22.4541   791
22.4641   731
22.4741   757
22.4841   763
22.4941   780
22.5041   774
22.5141   757
22.5241   807
22.5341   826
22.5441   801
22.5541   806
22.5641   810
22.5741   747
22.5841   781
22.5941   797
22.6041   787
22.6141   771
22.6241   743
22.6341   789
22.6441   783
22.6541   744
22.6641   785
22.6741   808
22.6841   799
22.6941   783
22.7041   830
22.7141   756
22.7241   756
22.7341   747
22.7441   778
22.7541   754
22.7641   802
22.7741   784
22.7841   777
22.7941   805
22.8041   757
22.8141   844
22.8241   783
22.8341   751
22.8441   758
22.8541   754
22.8641   781
22.8741   817
22.8841   796
22.8941   794
22.9041   810
22.9141   788
22.9241   764
22.9341   784
22.9441   748
22.9541   775
22.9641   774
22.9741   771
22.9841   776
22.9941   755
23.0041   828
23.0141   764
23.0241   791
23.0341   717
23.0441   851
23.0541   764
23.0641   750
23.0741   769
23.0841   771
23.0941   759
23.1041   749
23.1141   809
23.1241   830
23.1341   750
23.1441   794
23.1541   772
23.1641   785
23.1741   730
23.1841   726
23.1941   825
23.2041   806
23.2141   773
23.2241   773
23.2341   730
23.2441   754
23.2541   770
23.2641   801
23.2741   804
23.2841   794
23.2941   744
23.3041   824
23.3141   735
23.3241   731
23.3341   746
23.3441   771
23.3541   798
23.3641   808
23.3741   757
23.3841   791
23.3941   742
23.4041   767
23.4141   736
23.4241   762
23.4341   793
23.4441   784
23.4541   756
23.4641   763
23.4741   725
23.4841   741
23.4941   773
23.5041   727
23.5141   774
23.5241   774
23.5341   757
23.5441   740
23.5541   743
23.5641   757
23.5741   762
23.5841   761
23.5941   771
23.6041   784
23.6141   768
23.6241   780
23.6341   796
23.6441   772
23.6541   729
23.6641   818
23.6741   810
23.6841   814
23.6941   810
23.7041   829
23.7141   843
23.7241   849
23.7341   849
23.7441   786
23.7541   835
23.7641   885
23.7741   820
23.7841   844
23.7941   815
23.8041   780
23.8141   825
23.8241   830
23.8341   843
23.8441   835
23.8541   794
23.8641   816
23.8741   842
23.8841   811
23.8941   858
23.9041   806
23.9141   768
23.9241   808
23.9341   770
23.9441   798
23.9541   758
23.9641   830
23.9741   770
23.9841   747
23.9941   752
24.0041   790
24.0141   778
24.0241   798
24.0341   802
24.0441   751
24.0541   761
24.0641   794
24.0741   727
24.0841   770
24.0941   727
24.1041   761
24.1141   780
24.1241   706
24.1341   729
24.1441   767
24.1541   731
24.1641   755
24.1741   742
24.1841   757
24.1941   781
24.2041   725
24.2141   740
24.2241   748
24.2341   787
24.2441   727
24.2541   743
24.2641   749
24.2741   744
24.2841   728
24.2941   775
24.3041   746
24.3141   754
24.3241   692
24.3341   783
24.3441   766
24.3541   724
24.3641   786
24.3741   741
24.3841   773
24.3941   751
24.4041   671
24.4141   702
24.4241   728
24.4341   691
24.4441   744
24.4541   731
24.4641   746
24.4741   732
24.4841   759
24.4941   751
24.5041   733
24.5141   675
24.5241   703
24.5341   739
24.5441   761
24.5541   739
24.5641   761
24.5741   738
24.5841   721
24.5941   714
24.6041   695
24.6141   692
24.6241   718
24.6341   657
24.6441   725
24.6541   751
24.6641   707
24.6741   763
24.6841   749
24.6941   745
24.7041   716
24.7141   724
24.7241   728
24.7341   744
24.7441   737
24.7541   690
24.7641   658
24.7741   732
24.7841   746
24.7941   731
24.8041   725
24.8141   745
24.8241   689
24.8341   671
24.8441   675
24.8541   680
24.8641   700
24.8741   724
24.8841   751
24.8941   710
24.9041   697
24.9141   729
24.9241   702
24.9341   687
24.9441   757
24.9541   692
24.9641   725
24.9741   752
24.9841   723
24.9941   708
25.0041   716
25.0141   730
25.0241   703
25.0341   762
25.0441   694
25.0541   693
25.0641   722
25.0741   739
25.0841   737
25.0941   709
25.1041   755
25.1141   715
25.1241   761
25.1341   732
25.1441   734
25.1541   759
25.1641   699
25.1741   743
25.1841   704
25.1941   719
25.2041   729
25.2141   766
25.2241   732
25.2341   731
25.2441   717
25.2541   681
25.2641   734
25.2741   725
25.2841   725
25.2941   730
25.3041   728
25.3141   703
25.3241   695
25.3341   722
25.3441   703
25.3541   720
25.3641   722
25.3741   746
25.3841   694
25.3941   719
25.4041   708
25.4141   681
25.4241   686
25.4341   720
25.4441   711
25.4541   687
25.4641   723
25.4741   645
25.4841   687
25.4941   678
25.5041   676
25.5141   698
25.5241   698
25.5341   653
25.5441   653
25.5541   634
25.5641   631
25.5741   646
25.5841   662
25.5941   693
25.6041   688
25.6141   689
25.6241   661
25.6341   665
25.6441   705
25.6541   632
25.6641   666
25.6741   705
25.6841   697
25.6941   674
25.7041   678
25.7141   687
25.7241   667
25.7341   634
25.7441   625
25.7541   648
25.7641   680
25.7741   648
25.7841   651
25.7941   679
25.8041   654
25.8141   663
25.8241   675
25.8341   661
25.8441   651
25.8541   621
25.8641   635
25.8741   658
25.8841   663
25.8941   651
25.9041   589
25.9141   703
25.9241   684
25.9341   681
25.9441   640
25.9541   625
25.9641   650
25.9741   678
25.9841   648
25.9941   690
26.0041   664
26.0141   662
26.0241   632
26.0341   673
26.0441   610
26.0541   665
26.0641   641
26.0741   618
26.0841   626
26.0941   662
26.1041   663
26.1141   621
26.1241   637
26.1341   617
26.1441   661
26.1541   645
26.1641   664
26.1741   623
26.1841   672
26.1941   642
26.2041   645
26.2141   619
26.2241   568
26.2341   639
26.2441   640
26.2541   620
26.2641   618
26.2741   682
26.2841   638
26.2941   643
26.3041   621
26.3141   656
26.3241   610
26.3341   638
26.3441   628
26.3541   668
26.3641   612
26.3741   637
26.3841   618
26.3941   642
26.4041   629
26.4141   688
26.4241   642
26.4341   625
26.4441   609
26.4541   603
26.4641   593
26.4741   657
26.4841   675
26.4941   625
26.5041   645
26.5141   635
26.5241   634
26.5341   667
26.5441   650
26.5541   633
26.5641   582
26.5741   669
26.5841   648
26.5941   613
26.6041   597
26.6141   591
26.6241   598
26.6341   620
26.6441   605
26.6541   641
26.6641   615
26.6741   605
26.6841   648
26.6941   628
26.7041   640
26.7141   601
26.7241   609
26.7341   656
26.7441   641
26.7541   636
26.7641   593
26.7741   636
26.7841   643
26.7941   584
26.8041   649
26.8141   616
26.8241   613
26.8341   632
26.8441   563
26.8541   552
26.8641   585
26.8741   578
26.8841   599
26.8941   619
26.9041   630
26.9141   603
26.9241   562
26.9341   616
26.9441   589
26.9541   600
26.9641   584
26.9741   561
26.9841   578
26.9941   607
27.0041   626
27.0141   636
27.0241   651
27.0341   594
27.0441   599
27.0541   605
27.0641   602
27.0741   588
27.0841   602
27.0941   602
27.1041   569
27.1141   588
27.1241   638
27.1341   616
27.1441   601
27.1541   612
27.1641   611
27.1741   603
27.1841   594
27.1941   602
27.2041   610
27.2141   593
27.2241   599
27.2341   613
27.2441   591
27.2541   602
27.2641   579
27.2741   597
27.2841   602
27.2941   575
27.3041   571
27.3141   596
27.3241   556
27.3341   562
27.3441   549
27.3541   598
27.3641   594
27.3741   569
27.3841   567
27.3941   574
27.4041   579
27.4141   547
27.4241   587
27.4341   600
27.4441   560
27.4541   568
27.4641   606
27.4741   611
27.4841   557
27.4941   578
27.5041   557
27.5141   577
27.5241   568
27.5341   579
27.5441   580
27.5541   584
27.5641   547
27.5741   538
27.5841   595
27.5941   579
27.6041   554
27.6141   580
27.6241   540
27.6341   547
27.6441   566
27.6541   555
27.6641   588
27.6741   558
27.6841   516
27.6941   587
27.7041   565
27.7141   539
27.7241   545
27.7341   544
27.7441   531
27.7541   538
27.7641   600
27.7741   570
27.7841   543
27.7941   542
27.8041   571
27.8141   583
27.8241   561
27.8341   553
27.8441   545
27.8541   542
27.8641   558
27.8741   569
27.8841   549
27.8941   510
27.9041   519
27.9141   535
27.9241   563
27.9341   558
27.9441   564
27.9541   534
27.9641   502
27.9741   497
27.9841   581
27.9941   545
28.0041   523
28.0141   543
28.0241   515
28.0341   505
28.0441   504
28.0541   522
28.0641   493
28.0741   541
28.0841   578
28.0941   550
28.1041   511
28.1141   512
28.1241   505
28.1341   536
28.1441   537
28.1541   507
28.1641   512
28.1741   544
28.1841   534
28.1941   550
28.2041   510
28.2141   508
28.2241   524
28.2341   539
28.2441   531
28.2541   532
28.2641   533
28.2741   540
28.2841   546
28.2941   522
28.3041   532
28.3141   492
28.3241   495
28.3341   535
28.3441   524
28.3541   510
28.3641   501
28.3741   491
28.3841   518
28.3941   512
28.4041   496
28.4141   546
28.4241   527
28.4341   500
28.4441   496
28.4541   509
28.4641   516
28.4741   534
28.4841   508
28.4941   539
28.5041   499
28.5141   518
28.5241   510
28.5341   533
28.5441   541
28.5541   482
28.5641   526
28.5741   517
28.5841   480
28.5941   500
28.6041   533
28.6141   512
28.6241   507
28.6341   517
28.6441   510
28.6541   482
28.6641   459
28.6741   501
28.6841   509
28.6941   537
28.7041   469
28.7141   479
28.7241   481
28.7341   502
28.7441   472
28.7541   497
28.7641   505
28.7741   514
28.7841   522
28.7941   497
28.8041   525
28.8141   454
28.8241   481
28.8341   481
28.8441   451
28.8541   492
28.8641   448
28.8741   445
28.8841   456
28.8941   451
28.9041   508
28.9141   513
28.9241   506
28.9341   488
28.9441   460
28.9541   481
28.9641   474
28.9741   480
28.9841   480
28.9941   507
29.0041   479
29.0141   484
29.0241   489
29.0341   482
29.0441   521
29.0541   513
29.0641   498
29.0741   452
29.0841   434
29.0941   469
29.1041   469
29.1141   455
29.1241   467
29.1341   494
29.1441   457
29.1541   479
29.1641   470
29.1741   480
29.1841   488
29.1941   459
29.2041   466
29.2141   469
29.2241   485
29.2341   422
29.2441   480
29.2541   464
29.2641   439
29.2741   473
29.2841   461
29.2941   459
29.3041   428
29.3141   430
29.3241   470
29.3341   484
29.3441   473
29.3541   477
29.3641   445
29.3741   453
29.3841   466
29.3941   485
29.4041   440
29.4141   451
29.4241   427
29.4341   459
29.4441   465
29.4541   474
29.4641   415
29.4741   439
29.4841   427
29.4941   462
29.5041   446
29.5141   433
29.5241   449
29.5341   452
29.5441   428
29.5541   443
29.5641   441
29.5741   434
29.5841   441
29.5941   438
29.6041   454
29.6141   468
29.6241   424
29.6341   407
29.6441   433
29.6541   445
29.6641   451
29.6741   440
29.6841   395
29.6941   432
29.7041   409
29.7141   437
29.7241   438
29.7341   457
29.7441   444
29.7541   438
29.7641   444
29.7741   406
29.7841   422
29.7941   422
29.8041   438
29.8141   416
29.8241   438
29.8341   403
29.8441   430
29.8541   431
29.8641   437
29.8741   422
29.8841   450
29.8941   413
29.9041   421
29.9141   411
29.9241   414
29.9341   475
29.9441   432
29.9541   452
29.9641   439
29.9741   397
29.9841   406
29.9941   436
30.0041   395
30.0141   425
30.0241   399
30.0341   433
30.0441   408
30.0541   422
30.0641   414
30.0741   409
30.0841   426
30.0941   364
30.1041   392
30.1141   434
30.1241   384
30.1341   414
30.1441   444
30.1541   414
30.1641   420
30.1741   407
30.1841   394
30.1941   378
30.2041   426
30.2141   413
30.2241   388
30.2341   370
30.2441   432
30.2541   434
30.2641   404
30.2741   368
30.2841   416
30.2941   380
30.3041   429
30.3141   405
30.3241   406
30.3341   404
30.3441   413
30.3541   427
30.3641   393
30.3741   402
30.3841   405
30.3941   433
30.4041   405
30.4141   411
30.4241   416
30.4341   388
30.4441   410
30.4541   428
30.4641   395
30.4741   365
30.4841   392
30.4941   378
30.5041   360
30.5141   411
30.5241   401
30.5341   395
30.5441   395
30.5541   434
30.5641   376
30.5741   400
30.5841   387
30.5941   358
30.6041   376
30.6141   411
30.6241   383
30.6341   404
30.6441   378
30.6541   410
30.6641   394
30.6741   412
30.6841   372
30.6941   408
30.7041   394
30.7141   368
30.7241   390
30.7341   341
30.7441   353
30.7541   389
30.7641   388
30.7741   348
30.7841   369
30.7941   367
30.8041   407
30.8141   339
30.8241   342
30.8341   400
30.8441   361
30.8541   367
30.8641   365
30.8741   373
30.8841   372
30.8941   388
30.9041   379
30.9141   378
30.9241   368
30.9341   370
30.9441   392
30.9541   365
30.9641   365
30.9741   372
30.9841   398
30.9941   387
31.0041   355
31.0141   352
31.0241   411
31.0341   382
31.0441   382
31.0541   357
31.0641   376
31.0741   380
31.0841   342
31.0941   379
31.1041   340
31.1141   369
31.1241   333
31.1341   344
31.1441   371
31.1541   355
31.1641   361
31.1741   372
31.1841   352
31.1941   331
31.2041   361
31.2141   387
31.2241   351
31.2341   345
31.2441   321
31.2541   360
31.2641   346
31.2741   336
31.2841   343
31.2941   346
31.3041   378
31.3141   345
31.3241   330
31.3341   343
31.3441   335
31.3541   317
31.3641   348
31.3741   320
31.3841   338
31.3941   336
31.4041   335
31.4141   338
31.4241   351
31.4341   364
31.4441   320
31.4541   306
31.4641   362
31.4741   325
31.4841   330
31.4941   383
31.5041   358
31.5141   342
31.5241   330
31.5341   320
31.5441   298
31.5541   321
31.5641   343
31.5741   315
31.5841   311
31.5941   349
31.6041   354
31.6141   333
31.6241   348
31.6341   378
31.6441   342
31.6541   335
31.6641   340
31.6741   345
31.6841   336
31.6941   373
31.7041   338
31.7141   330
31.7241   327
31.7341   348
31.7441   335
31.7541   319
31.7641   326
31.7741   327
31.7841   368
31.7941   308
31.8041   319
31.8141   315
31.8241   307
31.8341   314
31.8441   333
31.8541   331
31.8641   367
31.8741   340
31.8841   305
31.8941   317
31.9041   334
31.9141   286
31.9241   314
31.9341   329
31.9441   325
31.9541   318
31.9641   292
31.9741   308
31.9841   304
31.9941   276
32.0041   319
32.0141   302
32.0241   309
32.0341   308
32.0441   309
32.0541   305
32.0641   312
32.0741   343
32.0841   303
32.0941   318
32.1041   304
32.1141   291
32.1241   316
32.1341   312
32.1441   330
32.1541   337
32.1641   311
32.1741   329
32.1841   334
32.1941   329
32.2041   323
32.2141   332
32.2241   304
32.2341   306
32.2441   349
32.2541   310
32.2641   300
32.2741   321
32.2841   326
32.2941   314
32.3041   297
32.3141   321
32.3241   309
32.3341   314
32.3441   296
32.3541   288
32.3641   296
32.3741   318
32.3841   275
32.3941   310
32.4041   285
32.4141   278
32.4241   281
32.4341   272
32.4441   346
32.4541   310
32.4641   312
32.4741   302
32.4841   294
32.4941   295
32.5041   298
32.5141   280
32.5241   288
32.5341   284
32.5441   282
32.5541   293
32.5641   276
32.5741   257
32.5841   294
32.5941   300
32.6041   281
32.6141   268
32.6241   303
32.6341   292
32.6441   263
32.6541   257
32.6641   264
32.6741   287
32.6841   276
32.6941   260
32.7041   272
32.7141   311
32.7241   261
32.7341   282
32.7441   269
32.7541   249
32.7641   273
32.7741   280
32.7841   250
32.7941   272
32.8041   259
32.8141   276
32.8241   285
32.8341   290
32.8441   295
32.8541   287
32.8641   257
32.8741   269
32.8841   260
32.8941   271
32.9041   268
32.9141   261
32.9241   249
32.9341   290
32.9441   260
32.9541   245
32.9641   264
32.9741   272
32.9841   259
32.9941   265
33.0041   255
33.0141   257
33.0241   266
33.0341   267
33.0441   254
33.0541   254
33.0641   235
33.0741   275
33.0841   238
33.0941   259
33.1041   231
33.1141   268
33.1241   229
33.1341   279
33.1441   245
33.1541   252
33.1641   274
33.1741   237
33.1841   264
33.1941   269
33.2041   291
33.2141   264
33.2241   262
33.2341   266
33.2441   251
33.2541   254
33.2641   247
33.2741   245
33.2841   249
33.2941   263
33.3041   265
33.3141   249
33.3241   252
33.3341   270
33.3441   260
33.3541   243
33.3641   252
33.3741   241
33.3841   232
33.3941   249
33.4041   236
33.4141   238
33.4241   240
33.4341   244
33.4441   250
33.4541   245
33.4641   239
33.4741   236
33.4841   269
33.4941   247
33.5041   225
33.5141   236
33.5241   244
33.5341   225
33.5441   244
33.5541   237
33.5641   238
33.5741   256
33.5841   228
33.5941   228
33.6041   247
33.6141   221
33.6241   240
33.6341   232
33.6441   248
33.6541   225
33.6641   242
33.6741   217
33.6841   232
33.6941   217
33.7041   207
33.7141   214
33.7241   251
33.7341   206
33.7441   217
33.7541   242
33.7641   245
33.7741   218
33.7841   236
33.7941   231
33.8041   254
33.8141   224
33.8241   231
33.8341   234
33.8441   229
33.8541   223
33.8641   232
33.8741   227
33.8841   191
33.8941   228
33.9041   216
33.9141   207
33.9241   244
33.9341   221
33.9441   228
33.9541   223
33.9641   211
33.9741   204
33.9841   217
33.9941   223
34.0041   218
34.0141   231
34.0241   230
34.0341   209
34.0441   212
34.0541   219
34.0641   243
34.0741   200
34.0841   219
34.0941   220
34.1041   216
34.1141   230
34.1241   229
34.1341   232
34.1441   215
34.1541   215
34.1641   220
34.1741   211
34.1841   225
34.1941   201
34.2041   243
34.2141   200
34.2241   203
34.2341   223
34.2441   216
34.2541   212
34.2641   221
34.2741   193
34.2841   196
34.2941   217
34.3041   217
34.3141   207
34.3241   183
34.3341   197
34.3441   198
34.3541   198
34.3641   221
34.3741   209
34.3841   186
34.3941   224
34.4041   217
34.4141   221
34.4241   213
34.4341   198
34.4441   186
34.4541   178
34.4641   201
34.4741   172
34.4841   209
34.4941   212
34.5041   214
34.5141   200
34.5241   196
34.5341   204
34.5441   181
34.5541   177
34.5641   203
34.5741   188
34.5841   191
34.5941   191
34.6041   184
34.6141   195
34.6241   180
34.6341   178
34.6441   207
34.6541   187
34.6641   186
34.6741   185
34.6841   202
34.6941   196
34.7041   197
34.7141   195
34.7241   197
34.7341   191
34.7441   206
34.7541   196
34.7641   174
34.7741   182
34.7841   181
34.7941   210
34.8041   203
34.8141   199
34.8241   190
34.8341   198
34.8441   175
34.8541   192
34.8641   189
34.8741   194
34.8841   206
34.8941   178
34.9041   189
34.9141   190
34.9241   185
34.9341   192
34.9441   192
34.9541   194
34.9641   174
34.9741   191
34.9841   166
34.9941   170
35.0041   194
35.0141   170
35.0241   177
35.0341   203
35.0441   176
35.0541   209
35.0641   189
35.0741   192
35.0841   171
35.0941   199
35.1041   216
35.1141   162
35.1241   168
35.1341   196
35.1441   173
35.1541   163
35.1641   182
35.1741   170
35.1841   165
35.1941   167
35.2041   176
35.2141   159
35.2241   185
35.2341   171
35.2441   187
35.2541   177
35.2641   167
35.2741   161
35.2841   179
35.2941   179
35.3041   172
35.3141   153
35.3241   182
35.3341   166
35.3441   186
35.3541   178
35.3641   165
35.3741   148
35.3841   143
35.3941   165
35.4041   175
35.4141   183
35.4241   216
35.4341   184
35.4441   182
35.4541   176
35.4641   161
35.4741   163
35.4841   185
35.4941   160
35.5041   159
35.5141   152
35.5241   168
35.5341   184
35.5441   172
35.5541   170
35.5641   170
35.5741   183
35.5841   140
35.5941   150
35.6041   161
35.6141   156
35.6241   154
35.6341   165
35.6441   144
35.6541   153
35.6641   158
35.6741   152
35.6841   152
35.6941   155
35.7041   165
35.7141   159
35.7241   135
35.7341   153
35.7441   151
35.7541   164
35.7641   142
35.7741   167
35.7841   153
35.7941   178
35.8041   159
35.8141   151
35.8241   127
35.8341   144
35.8441   151
35.8541   156
35.8641   152
35.8741   147
35.8841   151
35.8941   156
35.9041   148
35.9141   159
35.9241   132
35.9341   125
35.9441   151
35.9541   141
35.9641   140
35.9741   168
35.9841   121
35.9941   162
36.0041   157
36.0141   141
36.0241   132
36.0341   136
36.0441   134
36.0541   135
36.0641   135
36.0741   139
36.0841   149
36.0941   141
36.1041   163
36.1141   147
36.1241   153
36.1341   147
36.1441   148
36.1541   151
36.1641   160
36.1741   159
36.1841   143
36.1941   132
36.2041   132
36.2141   128
36.2241   110
36.2341   136
36.2441   135
36.2541   139
36.2641   145
36.2741   169
36.2841   149
36.2941   142
36.3041   127
36.3141   117
36.3241   147
36.3341   119
36.3441   150
36.3541   146
36.3641   150
36.3741   140
36.3841   132
36.3941   140
36.4041   130
36.4141   134
36.4241   141
36.4341   130
36.4441   142
36.4541   143
36.4641   123
36.4741   128
36.4841   127
36.4941   134
36.5041   140
36.5141   145
36.5241   135
36.5341   134
36.5441   136
36.5541   150
36.5641   137
36.5741   156
36.5841   119
36.5941   120
36.6041   109
36.6141   106
36.6241   130
36.6341   123
36.6441   132
36.6541   131
36.6641   120
36.6741   110
36.6841   128
36.6941   125
36.7041   123
36.7141   133
36.7241   127
36.7341   130
36.7441   115
36.7541   125
36.7641   116
36.7741   117
36.7841   122
36.7941   128
36.8041   124
36.8141   131
36.8241   113
36.8341   101
36.8441   116
36.8541   122
36.8641   118
36.8741   128
36.8841   113
36.8941   131
36.9041   113
36.9141   122
36.9241   119
36.9341   123
36.9441   111
36.9541   110
36.9641   131
36.9741    96
36.9841   121
36.9941   133
37.0041   118
37.0141   100
37.0241   124
37.0341   123
37.0441   130
37.0541   128
37.0641   117
37.0741   113
37.0841    99
37.0941   127
37.1041   110
37.1141    95
37.1241    98
37.1341    96
37.1441   107
37.1541   102
37.1641   111
37.1741   115
37.1841    98
37.1941    92
37.2041    93
37.2141   103
37.2241   105
37.2341   106
37.2441   105
37.2541   110
37.2641   114
37.2741   107
37.2841   110
37.2941    99
37.3041   120
37.3141   113
37.3241   116
37.3341   123
37.3441   109
37.3541   110
37.3641    92
37.3741   101
37.3841   106
37.3941   118
37.4041   120
37.4141   113
37.4241   114
37.4341    90
37.4441   118
37.4541    81
37.4641   120
37.4741    99
37.4841   107
37.4941   118
37.5041   108
37.5141   115
37.5241   103
37.5341    93
37.5441    93
37.5541   100
37.5641   105
37.5741   113
37.5841    88
37.5941   104
37.6041    88
37.6141    88
37.6241    90
37.6341   113
37.6441    86
37.6541   102
37.6641   102
37.6741    93
37.6841   109
37.6941   116
37.7041   103
37.7141    91
37.7241    97
37.7341   108
37.7441    92
37.7541    91
37.7641    94
37.7741   103
37.7841    90
37.7941    85
37.8041    92
37.8141    95
37.8241   102
37.8341    87
37.8441    79
37.8541    86
37.8641   107
37.8741   100
37.8841    98
37.8941    87
37.9041   113
37.9141   102
37.9241    92
37.9341    90
37.9441    93
37.9541   104
37.9641    90
37.9741    90
37.9841    96
37.9941    98
38.0041    98
38.0141    97
38.0241    78
38.0341    87
38.0441    78
38.0541    94
38.0641    91
38.0741    94
38.0841   100
38.0941    85
38.1041    82
38.1141    93
38.1241    79
38.1341    84
38.1441    81
38.1541    90
38.1641    81
38.1741    81
38.1841    82
38.1941    79
38.2041    89
38.2141    85
38.2241    81
38.2341    85
38.2441    99
38.2541   107
38.2641    91
38.2741    73
38.2841    84
38.2941    84
38.3041    80
38.3141    89
38.3241   100
38.3341    88
38.3441   104
38.3541    66
38.3641    79
38.3741    83
38.3841    61
38.3941    78
38.4041    84
38.4141    82
38.4241    80
38.4341    85
38.4441    97
38.4541    71
38.4641    79
38.4741    85
38.4841    76
38.4941    70
38.5041    80
38.5141    96
38.5241    78
38.5341    77
38.5441    84
38.5541    63
38.5641    85
38.5741    81
38.5841    87
38.5941    73
38.6041    72
38.6141    76
38.6241    73
38.6341    69
38.6441    69
38.6541    55
38.6641    75
38.6741    66
38.6841    77
38.6941    69
38.7041    73
38.7141    75
38.7241    79
38.7341    83
38.7441    82
38.7541    79
38.7641    74
38.7741    69
38.7841    63
38.7941    63
38.8041    71
38.8141    74
38.8241    88
38.8341    70
38.8441    57
38.8541    68
38.8641    56
38.8741    70
38.8841    71
38.8941    73
38.9041    65
38.9141    66
38.9241    64
38.9341    69
38.9441    63
38.9541    58
38.9641    64
38.9741    62
38.9841    74
38.9941    72
39.0041    54
39.0141    75
39.0241    63
39.0341    70
39.0441    70
39.0541    61
39.0641    74
39.0741    53
39.0841    53
39.0941    58
39.1041    48
39.1141    60
39.1241    59
39.1341    59
39.1441    57
39.1541    55
39.1641    78
39.1741    58
39.1841    66
39.1941    86
39.2041    66
39.2141    58
39.2241    63
39.2341    58
39.2441    57
39.2541    56
39.2641    67
39.2741    52
39.2841    53
39.2941    64
39.3041    54
39.3141    59
39.3241    73
39.3341    65
39.3441    45
39.3541    63
39.3641    60
39.3741    84
39.3841    62
39.3941    72
39.4041    47
39.4141    67
39.4241    50
39.4341    58
39.4441    53
39.4541    63
39.4641    60
39.4741    56
39.4841    64
39.4941    46
39.5041    47
39.5141    65
39.5241    48
39.5341    44
39.5441    59
39.5541    62
39.5641    56
39.5741    60
39.5841    59
39.5941    62
39.6041    52
39.6141    64
39.6241    55
39.6341    56
39.6441    56
39.6541    53
39.6641    58
39.6741    48
39.6841    52
39.6941    55
39.7041    68
39.7141    50
39.7241    62
39.7341    48
39.7441    63
39.7541    46
39.7641    58
39.7741    54
39.7841    49
39.7941    40
39.8041    47
39.8141    64
39.8241    59
39.8341    51
39.8441    48
39.8541    47
39.8641    67
39.8741    51
39.8841    45
39.8941    46
39.9041    43
39.9141    43
39.9241    35
39.9341    50
39.9441    64
39.9541    54
39.9641    36
39.9741    42
39.9841    50
39.9941    50
