Bruker Nano GmbH Berlin, Germany
Esprit 1.9

Date: 5/14/2021 3:55:51 PM
Real time: 16538
Life time: 15507
Pulse density: 93054


Detector type: XFlash 430
Window type: Custom type
Detector thickness: 0.45
Si dead layer:0.029

Calibration, lin.: 10
Calibration, abs.: -955.9
Mn FWHM: 137.05
Fano factor: 0.121
Channels: 4095

Energy Counts
-0.9559     0
-0.9459     0
-0.9359     0
-0.9259     0
-0.9159     0
-0.9059     0
-0.8959     0
-0.8859     0
-0.8759     0
-0.8659     0
-0.8559     0
-0.8459     0
-0.8359     0
-0.8259     0
-0.8159     0
-0.8059     0
-0.7959     0
-0.7859     0
-0.7759     0
-0.7659     0
-0.7559     0
-0.7459     0
-0.7359     0
-0.7259     0
-0.7159     0
-0.7059     0
-0.6959     0
-0.6859     0
-0.6759     0
-0.6659     0
-0.6559     0
-0.6459     0
-0.6359     0
-0.6259     0
-0.6159     0
-0.6059     0
-0.5959     0
-0.5859     0
-0.5759     0
-0.5659     0
-0.5559     0
-0.5459     0
-0.5359     0
-0.5259     0
-0.5159     0
-0.5059     0
-0.4959     0
-0.4859     0
-0.4759     0
-0.4659     0
-0.4559     0
-0.4459     0
-0.4359     0
-0.4259     0
-0.4159     0
-0.4059     0
-0.3959     0
-0.3859     0
-0.3759     0
-0.3659     0
-0.3559     0
-0.3459     0
-0.3359     0
-0.3259     0
-0.3159     0
-0.3059     0
-0.2959     0
-0.2859     0
-0.2759     0
-0.2659     0
-0.2559     0
-0.2459     0
-0.2359     0
-0.2259     0
-0.2159     0
-0.2059     0
-0.1959     0
-0.1859     0
-0.1759     0
-0.1659     0
-0.1559     0
-0.1459     0
-0.1359     1
-0.1259     1
-0.1159     1
-0.1059    13
-0.0959    33
-0.0859   192
-0.0759   590
-0.0659  1747
-0.0559  4463
-0.0459  9899
-0.0359 18519
-0.0259 29232
-0.0159 40592
-0.0059 47636
 0.0041 47897
 0.0141 41123
 0.0241 30364
 0.0341 19068
 0.0441 10597
 0.0541  4832
 0.0641  1920
 0.0741   697
 0.0841   201
 0.0941    51
 0.1041    15
 0.1141     6
 0.1241     6
 0.1341     4
 0.1441     2
 0.1541     3
 0.1641     4
 0.1741     1
 0.1841   115
 0.1941   251
 0.2041   224
 0.2141   197
 0.2241   200
 0.2341   221
 0.2441   247
 0.2541   242
 0.2641   224
 0.2741   224
 0.2841   215
 0.2941   202
 0.3041   218
 0.3141   220
 0.3241   210
 0.3341   205
 0.3441   202
 0.3541   204
 0.3641   218
 0.3741   205
 0.3841   166
 0.3941   204
 0.4041   170
 0.4141   185
 0.4241   197
 0.4341   212
 0.4441   204
 0.4541   218
 0.4641   204
 0.4741   190
 0.4841   191
 0.4941   169
 0.5041   181
 0.5141   204
 0.5241   196
 0.5341   179
 0.5441   203
 0.5541   195
 0.5641   160
 0.5741   178
 0.5841   177
 0.5941   169
 0.6041   179
 0.6141   170
 0.6241   168
 0.6341   179
 0.6441   180
 0.6541   162
 0.6641   171
 0.6741   181
 0.6841   164
 0.6941   163
 0.7041   164
 0.7141   153
 0.7241   151
 0.7341   168
 0.7441   167
 0.7541   158
 0.7641   160
 0.7741   157
 0.7841   161
 0.7941   172
 0.8041   176
 0.8141   171
 0.8241   168
 0.8341   155
 0.8441   146
 0.8541   150
 0.8641   147
 0.8741   148
 0.8841   153
 0.8941   152
 0.9041   155
 0.9141   153
 0.9241   146
 0.9341   139
 0.9441   135
 0.9541   149
 0.9641   155
 0.9741   150
 0.9841   131
 0.9941   133
 1.0041   132
 1.0141   140
 1.0241   154
 1.0341   146
 1.0441   135
 1.0541   152
 1.0641   144
 1.0741   141
 1.0841   143
 1.0941   159
 1.1041   147
 1.1141   144
 1.1241   146
 1.1341   148
 1.1441   145
 1.1541   153
 1.1641   121
 1.1741   138
 1.1841   131
 1.1941   126
 1.2041   132
 1.2141   136
 1.2241   150
 1.2341   156
 1.2441   131
 1.2541   130
 1.2641   132
 1.2741   132
 1.2841   121
 1.2941   135
 1.3041   125
 1.3141   136
 1.3241   140
 1.3341   125
 1.3441   118
 1.3541   129
 1.3641   119
 1.3741   129
 1.3841   129
 1.3941   126
 1.4041   127
 1.4141   132
 1.4241   120
 1.4341   120
 1.4441   123
 1.4541   116
 1.4641   121
 1.4741   126
 1.4841   129
 1.4941   125
 1.5041   123
 1.5141   134
 1.5241   123
 1.5341   119
 1.5441   141
 1.5541   128
 1.5641   121
 1.5741   131
 1.5841   122
 1.5941   133
 1.6041   108
 1.6141   125
 1.6241   125
 1.6341   141
 1.6441   168
 1.6541   171
 1.6641   184
 1.6741   238
 1.6841   339
 1.6941   368
 1.7041   476
 1.7141   531
 1.7241   586
 1.7341   667
 1.7441   647
 1.7541   626
 1.7641   526
 1.7741   453
 1.7841   390
 1.7941   336
 1.8041   261
 1.8141   220
 1.8241   187
 1.8341   158
 1.8441   175
 1.8541   152
 1.8641   158
 1.8741   140
 1.8841   159
 1.8941   136
 1.9041   126
 1.9141   154
 1.9241   116
 1.9341   126
 1.9441   117
 1.9541   131
 1.9641   137
 1.9741   149
 1.9841   158
 1.9941   172
 2.0041   159
 2.0141   174
 2.0241   149
 2.0341   186
 2.0441   151
 2.0541   132
 2.0641   135
 2.0741   122
 2.0841   130
 2.0941   115
 2.1041   129
 2.1141   131
 2.1241   113
 2.1341   111
 2.1441   113
 2.1541   107
 2.1641   123
 2.1741   125
 2.1841   113
 2.1941   119
 2.2041   125
 2.2141   116
 2.2241   116
 2.2341   121
 2.2441   108
 2.2541   128
 2.2641   111
 2.2741   115
 2.2841   118
 2.2941    90
 2.3041   108
 2.3141   117
 2.3241   108
 2.3341   126
 2.3441    93
 2.3541   108
 2.3641   122
 2.3741   107
 2.3841    98
 2.3941   106
 2.4041   106
 2.4141    94
 2.4241    93
 2.4341   108
 2.4441   123
 2.4541   108
 2.4641   102
 2.4741    95
 2.4841   105
 2.4941   116
 2.5041   104
 2.5141   114
 2.5241   101
 2.5341   105
 2.5441   111
 2.5541   105
 2.5641    96
 2.5741    98
 2.5841    95
 2.5941   116
 2.6041   116
 2.6141   108
 2.6241   100
 2.6341   100
 2.6441    96
 2.6541    92
 2.6641   101
 2.6741    92
 2.6841   108
 2.6941   106
 2.7041   101
 2.7141    90
 2.7241   115
 2.7341   103
 2.7441   123
 2.7541    99
 2.7641   103
 2.7741    84
 2.7841   109
 2.7941    86
 2.8041    99
 2.8141   103
 2.8241    99
 2.8341    91
 2.8441    90
 2.8541    91
 2.8641   136
 2.8741    95
 2.8841    91
 2.8941   104
 2.9041    92
 2.9141    95
 2.9241    98
 2.9341   102
 2.9441    87
 2.9541    79
 2.9641    90
 2.9741    90
 2.9841    96
 2.9941    88
 3.0041   101
 3.0141    90
 3.0241   105
 3.0341    77
 3.0441    90
 3.0541    73
 3.0641    93
 3.0741    97
 3.0841    83
 3.0941   100
 3.1041    84
 3.1141    75
 3.1241    95
 3.1341    94
 3.1441    75
 3.1541    78
 3.1641    88
 3.1741    80
 3.1841    94
 3.1941    84
 3.2041    84
 3.2141   105
 3.2241    88
 3.2341   106
 3.2441   108
 3.2541   122
 3.2641   146
 3.2741   125
 3.2841   153
 3.2941   150
 3.3041   164
 3.3141   177
 3.3241   163
 3.3341   130
 3.3441   131
 3.3541   120
 3.3641   141
 3.3741   113
 3.3841    98
 3.3941   112
 3.4041    90
 3.4141    96
 3.4241    79
 3.4341    96
 3.4441    83
 3.4541    86
 3.4641    74
 3.4741    74
 3.4841    85
 3.4941    79
 3.5041    72
 3.5141    98
 3.5241    89
 3.5341   116
 3.5441   104
 3.5541   143
 3.5641   147
 3.5741   193
 3.5841   197
 3.5941   274
 3.6041   351
 3.6141   429
 3.6241   594
 3.6341   683
 3.6441   908
 3.6541  1043
 3.6641  1172
 3.6741  1298
 3.6841  1275
 3.6941  1276
 3.7041  1296
 3.7141  1175
 3.7241  1006
 3.7341   899
 3.7441   708
 3.7541   614
 3.7641   497
 3.7741   309
 3.7841   246
 3.7941   184
 3.8041   147
 3.8141   114
 3.8241    94
 3.8341    76
 3.8441    67
 3.8541    73
 3.8641    78
 3.8741    87
 3.8841    78
 3.8941    80
 3.9041   102
 3.9141    93
 3.9241   120
 3.9341   127
 3.9441   137
 3.9541   172
 3.9641   200
 3.9741   225
 3.9841   202
 3.9941   243
 4.0041   261
 4.0141   271
 4.0241   270
 4.0341   251
 4.0441   246
 4.0541   216
 4.0641   182
 4.0741   165
 4.0841   121
 4.0941   122
 4.1041   108
 4.1141    80
 4.1241    88
 4.1341    86
 4.1441    78
 4.1541    74
 4.1641    74
 4.1741    75
 4.1841    58
 4.1941    61
 4.2041    62
 4.2141    68
 4.2241    53
 4.2341    56
 4.2441    62
 4.2541    56
 4.2641    59
 4.2741    70
 4.2841    74
 4.2941    57
 4.3041    65
 4.3141    64
 4.3241    52
 4.3341    66
 4.3441    78
 4.3541    74
 4.3641    89
 4.3741    94
 4.3841    88
 4.3941   101
 4.4041   138
 4.4141   149
 4.4241   187
 4.4341   227
 4.4441   268
 4.4541   301
 4.4641   373
 4.4741   409
 4.4841   434
 4.4941   486
 4.5041   485
 4.5141   483
 4.5241   461
 4.5341   458
 4.5441   410
 4.5541   327
 4.5641   272
 4.5741   252
 4.5841   180
 4.5941   183
 4.6041   155
 4.6141   118
 4.6241    86
 4.6341    89
 4.6441    81
 4.6541   100
 4.6641    73
 4.6741    87
 4.6841    74
 4.6941    62
 4.7041    76
 4.7141    65
 4.7241    75
 4.7341    82
 4.7441    75
 4.7541    62
 4.7641    74
 4.7741    75
 4.7841    90
 4.7941    87
 4.8041    79
 4.8141   108
 4.8241   107
 4.8341    91
 4.8441   104
 4.8541   116
 4.8641   122
 4.8741   129
 4.8841   136
 4.8941   148
 4.9041   161
 4.9141   159
 4.9241   141
 4.9341   154
 4.9441   164
 4.9541   144
 4.9641   160
 4.9741   145
 4.9841   135
 4.9941   136
 5.0041   104
 5.0141    98
 5.0241   101
 5.0341    99
 5.0441    84
 5.0541    96
 5.0641    83
 5.0741    78
 5.0841    79
 5.0941    79
 5.1041    75
 5.1141    75
 5.1241    77
 5.1341    80
 5.1441    81
 5.1541    71
 5.1641    69
 5.1741    70
 5.1841    68
 5.1941    73
 5.2041    89
 5.2141    73
 5.2241    71
 5.2341    82
 5.2441    78
 5.2541    79
 5.2641    78
 5.2741    84
 5.2841    79
 5.2941    74
 5.3041    74
 5.3141    54
 5.3241    91
 5.3341    68
 5.3441    90
 5.3541    85
 5.3641    95
 5.3741   111
 5.3841    98
 5.3941   105
 5.4041    87
 5.4141   104
 5.4241    96
 5.4341    98
 5.4441   111
 5.4541   104
 5.4641    98
 5.4741    95
 5.4841   106
 5.4941   102
 5.5041    92
 5.5141    96
 5.5241    71
 5.5341    80
 5.5441    71
 5.5541    85
 5.5641    91
 5.5741    72
 5.5841    85
 5.5941    90
 5.6041    92
 5.6141    84
 5.6241    73
 5.6341    70
 5.6441    78
 5.6541    70
 5.6641    96
 5.6741    83
 5.6841    84
 5.6941    87
 5.7041    95
 5.7141    78
 5.7241    84
 5.7341    81
 5.7441   108
 5.7541   104
 5.7641   140
 5.7741   128
 5.7841   128
 5.7941   187
 5.8041   223
 5.8141   242
 5.8241   279
 5.8341   319
 5.8441   381
 5.8541   394
 5.8641   432
 5.8741   444
 5.8841   533
 5.8941   478
 5.9041   492
 5.9141   453
 5.9241   479
 5.9341   419
 5.9441   374
 5.9541   341
 5.9641   310
 5.9741   247
 5.9841   229
 5.9941   187
 6.0041   177
 6.0141   135
 6.0241   135
 6.0341   132
 6.0441   134
 6.0541   122
 6.0641   112
 6.0741   115
 6.0841   133
 6.0941   123
 6.1041   130
 6.1141   123
 6.1241   150
 6.1341   136
 6.1441   166
 6.1541   189
 6.1641   185
 6.1741   194
 6.1841   252
 6.1941   295
 6.2041   340
 6.2141   419
 6.2241   640
 6.2341   881
 6.2441  1166
 6.2541  1642
 6.2641  2298
 6.2741  3078
 6.2841  4381
 6.2941  5631
 6.3041  7069
 6.3141  9033
 6.3241 11222
 6.3341 13655
 6.3441 15941
 6.3541 18004
 6.3641 20254
 6.3741 22064
 6.3841 23274
 6.3941 23624
 6.4041 23410
 6.4141 22921
 6.4241 21491
 6.4341 19920
 6.4441 17564
 6.4541 15274
 6.4641 13113
 6.4741 10709
 6.4841  8610
 6.4941  6632
 6.5041  5188
 6.5141  3785
 6.5241  2728
 6.5341  1916
 6.5441  1377
 6.5541   950
 6.5641   704
 6.5741   483
 6.5841   351
 6.5941   287
 6.6041   206
 6.6141   194
 6.6241   155
 6.6341   160
 6.6441   135
 6.6541   144
 6.6641   152
 6.6741   155
 6.6841   132
 6.6941   131
 6.7041   142
 6.7141   151
 6.7241   151
 6.7341   165
 6.7441   153
 6.7541   171
 6.7641   165
 6.7741   173
 6.7841   173
 6.7941   160
 6.8041   202
 6.8141   191
 6.8241   196
 6.8341   208
 6.8441   224
 6.8541   255
 6.8641   289
 6.8741   316
 6.8841   396
 6.8941   425
 6.9041   530
 6.9141   614
 6.9241   713
 6.9341   931
 6.9441  1157
 6.9541  1444
 6.9641  1765
 6.9741  2026
 6.9841  2375
 6.9941  2679
 7.0041  3092
 7.0141  3421
 7.0241  3632
 7.0341  3849
 7.0441  4136
 7.0541  4122
 7.0641  4098
 7.0741  3889
 7.0841  3673
 7.0941  3314
 7.1041  2925
 7.1141  2645
 7.1241  2276
 7.1341  1957
 7.1441  1586
 7.1541  1339
 7.1641   946
 7.1741   811
 7.1841   627
 7.1941   504
 7.2041   367
 7.2141   323
 7.2241   252
 7.2341   212
 7.2441   196
 7.2541   183
 7.2641   170
 7.2741   158
 7.2841   165
 7.2941   206
 7.3041   163
 7.3141   191
 7.3241   178
 7.3341   170
 7.3441   213
 7.3541   191
 7.3641   220
 7.3741   211
 7.3841   218
 7.3941   266
 7.4041   217
 7.4141   232
 7.4241   238
 7.4341   242
 7.4441   212
 7.4541   225
 7.4641   207
 7.4741   229
 7.4841   240
 7.4941   204
 7.5041   219
 7.5141   200
 7.5241   167
 7.5341   194
 7.5441   161
 7.5541   171
 7.5641   174
 7.5741   161
 7.5841   153
 7.5941   146
 7.6041   169
 7.6141   128
 7.6241   158
 7.6341   179
 7.6441   162
 7.6541   185
 7.6641   167
 7.6741   164
 7.6841   168
 7.6941   189
 7.7041   171
 7.7141   167
 7.7241   175
 7.7341   191
 7.7441   160
 7.7541   189
 7.7641   180
 7.7741   178
 7.7841   188
 7.7941   205
 7.8041   165
 7.8141   187
 7.8241   221
 7.8341   234
 7.8441   236
 7.8541   226
 7.8641   238
 7.8741   253
 7.8841   254
 7.8941   270
 7.9041   270
 7.9141   301
 7.9241   289
 7.9341   320
 7.9441   320
 7.9541   338
 7.9641   394
 7.9741   372
 7.9841   420
 7.9941   448
 8.0041   491
 8.0141   523
 8.0241   564
 8.0341   587
 8.0441   650
 8.0541   629
 8.0641   750
 8.0741   753
 8.0841   764
 8.0941   872
 8.1041   998
 8.1141   984
 8.1241  1020
 8.1341  1040
 8.1441  1029
 8.1541   995
 8.1641  1090
 8.1741  1082
 8.1841  1108
 8.1941  1148
 8.2041  1098
 8.2141  1149
 8.2241  1127
 8.2341  1196
 8.2441  1226
 8.2541  1212
 8.2641  1293
 8.2741  1360
 8.2841  1442
 8.2941  1529
 8.3041  1657
 8.3141  1834
 8.3241  1862
 8.3341  2068
 8.3441  2144
 8.3541  2333
 8.3641  2340
 8.3741  2424
 8.3841  2449
 8.3941  2506
 8.4041  2480
 8.4141  2337
 8.4241  2154
 8.4341  2096
 8.4441  1928
 8.4541  1685
 8.4641  1503
 8.4741  1322
 8.4841  1116
 8.4941   952
 8.5041   869
 8.5141   714
 8.5241   608
 8.5341   514
 8.5441   468
 8.5541   446
 8.5641   352
 8.5741   353
 8.5841   348
 8.5941   357
 8.6041   321
 8.6141   319
 8.6241   319
 8.6341   277
 8.6441   293
 8.6541   322
 8.6641   310
 8.6741   297
 8.6841   295
 8.6941   269
 8.7041   272
 8.7141   283
 8.7241   269
 8.7341   271
 8.7441   290
 8.7541   270
 8.7641   261
 8.7741   261
 8.7841   254
 8.7941   250
 8.8041   251
 8.8141   235
 8.8241   245
 8.8341   255
 8.8441   264
 8.8541   285
 8.8641   262
 8.8741   271
 8.8841   249
 8.8941   261
 8.9041   246
 8.9141   269
 8.9241   251
 8.9341   293
 8.9441   280
 8.9541   291
 8.9641   289
 8.9741   302
 8.9841   297
 8.9941   302
 9.0041   302
 9.0141   290
 9.0241   300
 9.0341   308
 9.0441   319
 9.0541   348
 9.0641   343
 9.0741   330
 9.0841   347
 9.0941   373
 9.1041   364
 9.1141   370
 9.1241   382
 9.1341   428
 9.1441   447
 9.1541   473
 9.1641   475
 9.1741   491
 9.1841   524
 9.1941   557
 9.2041   576
 9.2141   590
 9.2241   633
 9.2341   649
 9.2441   706
 9.2541   724
 9.2641   704
 9.2741   769
 9.2841   848
 9.2941   881
 9.3041   914
 9.3141   915
 9.3241   984
 9.3341   956
 9.3441  1020
 9.3541  1001
 9.3641  1053
 9.3741  1092
 9.3841  1107
 9.3941  1062
 9.4041  1105
 9.4141  1100
 9.4241  1181
 9.4341  1175
 9.4441  1165
 9.4541  1134
 9.4641  1150
 9.4741  1159
 9.4841  1190
 9.4941  1198
 9.5041  1251
 9.5141  1277
 9.5241  1330
 9.5341  1414
 9.5441  1432
 9.5541  1513
 9.5641  1536
 9.5741  1702
 9.5841  1740
 9.5941  1796
 9.6041  1873
 9.6141  2078
 9.6241  2151
 9.6341  2227
 9.6441  2219
 9.6541  2340
 9.6641  2277
 9.6741  2254
 9.6841  2246
 9.6941  2203
 9.7041  2080
 9.7141  2035
 9.7241  1893
 9.7341  1783
 9.7441  1684
 9.7541  1555
 9.7641  1455
 9.7741  1343
 9.7841  1268
 9.7941  1192
 9.8041  1104
 9.8141  1062
 9.8241  1004
 9.8341   983
 9.8441   976
 9.8541   972
 9.8641   969
 9.8741  1015
 9.8841  1003
 9.8941  1006
 9.9041  1061
 9.9141  1104
 9.9241  1114
 9.9341  1139
 9.9441  1153
 9.9541  1089
 9.9641  1116
 9.9741  1109
 9.9841  1006
 9.9941  1018
10.0041   928
10.0141   863
10.0241   807
10.0341   734
10.0441   676
10.0541   644
10.0641   572
10.0741   490
10.0841   422
10.0941   399
10.1041   321
10.1141   282
10.1241   285
10.1341   270
10.1441   242
10.1541   220
10.1641   215
10.1741   215
10.1841   207
10.1941   201
10.2041   197
10.2141   170
10.2241   171
10.2341   165
10.2441   168
10.2541   157
10.2641   154
10.2741   159
10.2841   148
10.2941   162
10.3041   144
10.3141   147
10.3241   151
10.3341   147
10.3441   134
10.3541   135
10.3641   120
10.3741   132
10.3841   123
10.3941   122
10.4041   128
10.4141   132
10.4241   127
10.4341   143
10.4441   143
10.4541   149
10.4641   150
10.4741   157
10.4841   146
10.4941   144
10.5041   144
10.5141   142
10.5241   164
10.5341   153
10.5441   149
10.5541   144
10.5641   145
10.5741   136
10.5841   142
10.5941   161
10.6041   153
10.6141   152
10.6241   133
10.6341   142
10.6441   177
10.6541   184
10.6641   170
10.6741   162
10.6841   161
10.6941   176
10.7041   166
10.7141   156
10.7241   161
10.7341   175
10.7441   194
10.7541   194
10.7641   192
10.7741   171
10.7841   163
10.7941   198
10.8041   194
10.8141   196
10.8241   228
10.8341   250
10.8441   217
10.8541   235
10.8641   252
10.8741   241
10.8841   226
10.8941   227
10.9041   234
10.9141   232
10.9241   226
10.9341   222
10.9441   249
10.9541   235
10.9641   249
10.9741   236
10.9841   242
10.9941   229
11.0041   236
11.0141   223
11.0241   226
11.0341   219
11.0441   220
11.0541   226
11.0641   218
11.0741   216
11.0841   223
11.0941   222
11.1041   217
11.1141   210
11.1241   200
11.1341   203
11.1441   217
11.1541   199
11.1641   219
11.1741   257
11.1841   260
11.1941   268
11.2041   284
11.2141   280
11.2241   296
11.2341   306
11.2441   331
11.2541   342
11.2641   328
11.2741   326
11.2841   343
11.2941   330
11.3041   351
11.3141   336
11.3241   327
11.3341   290
11.3441   272
11.3541   281
11.3641   263
11.3741   251
11.3841   247
11.3941   215
11.4041   205
11.4141   218
11.4241   200
11.4341   190
11.4441   206
11.4541   181
11.4641   175
11.4741   171
11.4841   163
11.4941   154
11.5041   148
11.5141   149
11.5241   160
11.5341   157
11.5441   163
11.5541   185
11.5641   186
11.5741   188
11.5841   175
11.5941   177
11.6041   167
11.6141   179
11.6241   180
11.6341   183
11.6441   179
11.6541   188
11.6641   190
11.6741   160
11.6841   162
11.6941   156
11.7041   164
11.7141   162
11.7241   161
11.7341   157
11.7441   139
11.7541   140
11.7641   147
11.7741   142
11.7841   130
11.7941   122
11.8041   119
11.8141   128
11.8241   138
11.8341   119
11.8441   104
11.8541   128
11.8641   123
11.8741   124
11.8841   126
11.8941   125
11.9041   124
11.9141   123
11.9241   123
11.9341   133
11.9441   134
11.9541   131
11.9641   121
11.9741   127
11.9841   126
11.9941   125
12.0041   117
12.0141   121
12.0241   121
12.0341   120
12.0441   115
12.0541   131
12.0641   138
12.0741   125
12.0841   120
12.0941   116
12.1041   122
12.1141   122
12.1241   122
12.1341   127
12.1441   125
12.1541   125
12.1641   117
12.1741   111
12.1841   110
12.1941   107
12.2041   115
12.2141   135
12.2241   125
12.2341   120
12.2441   118
12.2541   123
12.2641   120
12.2741   109
12.2841   112
12.2941   109
12.3041   115
12.3141   109
12.3241   107
12.3341   117
12.3441   129
12.3541   129
12.3641   122
12.3741   122
12.3841   126
12.3941   126
12.4041   116
12.4141   119
12.4241   129
12.4341   135
12.4441   124
12.4541   127
12.4641   132
12.4741   117
12.4841   123
12.4941   130
12.5041   123
12.5141   140
12.5241   131
12.5341   129
12.5441   118
12.5541   129
12.5641   147
12.5741   135
12.5841   125
12.5941   121
12.6041   135
12.6141   136
12.6241   124
12.6341   132
12.6441   118
12.6541   114
12.6641   123
12.6741   127
12.6841   135
12.6941   137
12.7041   129
12.7141   127
12.7241   133
12.7341   139
12.7441   140
12.7541   134
12.7641   128
12.7741   130
12.7841   138
12.7941   137
12.8041   130
12.8141   129
12.8241   137
12.8341   139
12.8441   134
12.8541   135
12.8641   144
12.8741   146
12.8841   138
12.8941   131
12.9041   136
12.9141   145
12.9241   147
12.9341   145
12.9441   142
12.9541   141
12.9641   140
12.9741   137
12.9841   135
12.9941   135
13.0041   140
13.0141   145
13.0241   154
13.0341   158
13.0441   149
13.0541   136
13.0641   139
13.0741   137
13.0841   135
13.0941   139
13.1041   145
13.1141   138
13.1241   154
13.1341   151
13.1441   138
13.1541   146
13.1641   149
13.1741   141
13.1841   151
13.1941   157
13.2041   158
13.2141   157
13.2241   155
13.2341   164
13.2441   175
13.2541   171
13.2641   176
13.2741   185
13.2841   181
13.2941   189
13.3041   215
13.3141   212
13.3241   211
13.3341   204
13.3441   199
13.3541   216
13.3641   224
13.3741   224
13.3841   225
13.3941   226
13.4041   226
13.4141   224
13.4241   219
13.4341   208
13.4441   193
13.4541   188
13.4641   192
13.4741   192
13.4841   191
13.4941   192
13.5041   184
13.5141   168
13.5241   154
13.5341   149
13.5441   150
13.5541   152
13.5641   155
13.5741   163
13.5841   167
13.5941   163
13.6041   155
13.6141   151
13.6241   154
13.6341   157
13.6441   155
13.6541   153
13.6641   148
13.6741   151
13.6841   149
13.6941   158
13.7041   160
13.7141   153
13.7241   159
13.7341   155
13.7441   141
13.7541   157
13.7641   171
13.7741   162
13.7841   152
13.7941   167
13.8041   174
13.8141   169
13.8241   174
13.8341   160
13.8441   165
13.8541   164
13.8641   166
13.8741   166
13.8841   167
13.8941   181
13.9041   180
13.9141   194
13.9241   208
13.9341   204
13.9441   202
13.9541   216
13.9641   236
13.9741   256
13.9841   270
13.9941   278
14.0041   290
14.0141   306
14.0241   326
14.0341   350
14.0441   368
14.0541   388
14.0641   413
14.0741   438
14.0841   475
14.0941   506
14.1041   510
14.1141   517
14.1241   542
14.1341   557
14.1441   556
14.1541   554
14.1641   553
14.1741   547
14.1841   537
14.1941   523
14.2041   496
14.2141   447
14.2241   414
14.2341   403
14.2441   392
14.2541   363
14.2641   337
14.2741   321
14.2841   290
14.2941   270
14.3041   244
14.3141   221
14.3241   228
14.3341   218
14.3441   203
14.3541   216
14.3641   214
14.3741   209
14.3841   190
14.3941   177
14.4041   191
14.4141   186
14.4241   167
14.4341   173
14.4441   185
14.4541   193
14.4641   204
14.4741   197
14.4841   190
14.4941   186
14.5041   188
14.5141   187
14.5241   178
14.5341   180
14.5441   184
14.5541   195
14.5641   193
14.5741   193
14.5841   210
14.5941   192
14.6041   172
14.6141   181
14.6241   178
14.6341   174
14.6441   195
14.6541   205
14.6641   188
14.6741   183
14.6841   189
14.6941   185
14.7041   183
14.7141   181
14.7241   176
14.7341   191
14.7441   195
14.7541   193
14.7641   202
14.7741   197
14.7841   197
14.7941   203
14.8041   213
14.8141   222
14.8241   217
14.8341   203
14.8441   209
14.8541   222
14.8641   221
14.8741   229
14.8841   230
14.8941   214
14.9041   209
14.9141   221
14.9241   247
14.9341   252
14.9441   249
14.9541   252
14.9641   249
14.9741   259
14.9841   253
14.9941   231
15.0041   241
15.0141   224
15.0241   218
15.0341   259
15.0441   238
15.0541   210
15.0641   224
15.0741   214
15.0841   218
15.0941   217
15.1041   216
15.1141   202
15.1241   194
15.1341   194
15.1441   198
15.1541   203
15.1641   202
15.1741   206
15.1841   216
15.1941   202
15.2041   212
15.2141   198
15.2241   183
15.2341   195
15.2441   202
15.2541   203
15.2641   188
15.2741   195
15.2841   215
15.2941   227
15.3041   218
15.3141   212
15.3241   218
15.3341   216
15.3441   194
15.3541   188
15.3641   195
15.3741   220
15.3841   222
15.3941   202
15.4041   188
15.4141   199
15.4241   213
15.4341   215
15.4441   199
15.4541   200
15.4641   205
15.4741   200
15.4841   219
15.4941   222
15.5041   216
15.5141   225
15.5241   240
15.5341   237
15.5441   243
15.5541   268
15.5641   280
15.5741   253
15.5841   257
15.5941   284
15.6041   299
15.6141   297
15.6241   324
15.6341   358
15.6441   341
15.6541   356
15.6641   384
15.6741   386
15.6841   373
15.6941   430
15.7041   434
15.7141   424
15.7241   423
15.7341   442
15.7441   468
15.7541   469
15.7641   443
15.7741   448
15.7841   440
15.7941   460
15.8041   455
15.8141   461
15.8241   475
15.8341   453
15.8441   444
15.8541   406
15.8641   374
15.8741   359
15.8841   343
15.8941   322
15.9041   315
15.9141   301
15.9241   302
15.9341   295
15.9441   297
15.9541   283
15.9641   265
15.9741   258
15.9841   260
15.9941   243
16.0041   234
16.0141   256
16.0241   270
16.0341   270
16.0441   244
16.0541   225
16.0641   243
16.0741   235
16.0841   215
16.0941   235
16.1041   243
16.1141   253
16.1241   237
16.1341   231
16.1441   252
16.1541   248
16.1641   263
16.1741   236
16.1841   239
16.1941   240
16.2041   221
16.2141   249
16.2241   243
16.2341   236
16.2441   230
16.2541   238
16.2641   248
16.2741   262
16.2841   212
16.2941   208
16.3041   231
16.3141   233
16.3241   226
16.3341   251
16.3441   236
16.3541   229
16.3641   230
16.3741   244
16.3841   248
16.3941   236
16.4041   228
16.4141   234
16.4241   236
16.4341   259
16.4441   257
16.4541   236
16.4641   265
16.4741   248
16.4841   254
16.4941   261
16.5041   255
16.5141   249
16.5241   245
16.5341   261
16.5441   262
16.5541   263
16.5641   261
16.5741   269
16.5841   270
16.5941   254
16.6041   247
16.6141   264
16.6241   257
16.6341   259
16.6441   268
16.6541   259
16.6641   252
16.6741   260
16.6841   269
16.6941   281
16.7041   258
16.7141   273
16.7241   270
16.7341   249
16.7441   251
16.7541   247
16.7641   264
16.7741   257
16.7841   270
16.7941   262
16.8041   234
16.8141   238
16.8241   269
16.8341   281
16.8441   272
16.8541   265
16.8641   270
16.8741   269
16.8841   262
16.8941   246
16.9041   265
16.9141   279
16.9241   283
16.9341   282
16.9441   267
16.9541   246
16.9641   244
16.9741   259
16.9841   271
16.9941   260
17.0041   247
17.0141   265
17.0241   259
17.0341   270
17.0441   257
17.0541   300
17.0641   274
17.0741   255
17.0841   263
17.0941   269
17.1041   269
17.1141   262
17.1241   274
17.1341   272
17.1441   271
17.1541   260
17.1641   274
17.1741   275
17.1841   262
17.1941   267
17.2041   265
17.2141   255
17.2241   280
17.2341   274
17.2441   259
17.2541   252
17.2641   269
17.2741   273
17.2841   280
17.2941   289
17.3041   283
17.3141   295
17.3241   284
17.3341   269
17.3441   260
17.3541   263
17.3641   275
17.3741   302
17.3841   276
17.3941   282
17.4041   274
17.4141   267
17.4241   276
17.4341   278
17.4441   278
17.4541   292
17.4641   282
17.4741   279
17.4841   298
17.4941   282
17.5041   297
17.5141   297
17.5241   292
17.5341   318
17.5441   299
17.5541   287
17.5641   292
17.5741   311
17.5841   295
17.5941   294
17.6041   313
17.6141   333
17.6241   313
17.6341   304
17.6441   308
17.6541   304
17.6641   307
17.6741   290
17.6841   325
17.6941   326
17.7041   333
17.7141   345
17.7241   334
17.7341   308
17.7441   321
17.7541   299
17.7641   310
17.7741   328
17.7841   314
17.7941   295
17.8041   320
17.8141   318
17.8241   285
17.8341   290
17.8441   280
17.8541   294
17.8641   283
17.8741   312
17.8841   321
17.8941   287
17.9041   309
17.9141   290
17.9241   291
17.9341   312
17.9441   288
17.9541   307
17.9641   306
17.9741   296
17.9841   301
17.9941   297
18.0041   303
18.0141   284
18.0241   287
18.0341   305
18.0441   328
18.0541   313
18.0641   311
18.0741   326
18.0841   307
18.0941   315
18.1041   309
18.1141   282
18.1241   291
18.1341   319
18.1441   310
18.1541   297
18.1641   308
18.1741   322
18.1841   309
18.1941   308
18.2041   308
18.2141   303
18.2241   314
18.2341   309
18.2441   303
18.2541   314
18.2641   311
18.2741   302
18.2841   285
18.2941   314
18.3041   307
18.3141   308
18.3241   326
18.3341   311
18.3441   301
18.3541   314
18.3641   325
18.3741   329
18.3841   288
18.3941   289
18.4041   312
18.4141   325
18.4241   303
18.4341   309
18.4441   330
18.4541   314
18.4641   320
18.4741   310
18.4841   335
18.4941   308
18.5041   322
18.5141   299
18.5241   313
18.5341   312
18.5441   298
18.5541   322
18.5641   318
18.5741   313
18.5841   328
18.5941   325
18.6041   320
18.6141   309
18.6241   309
18.6341   318
18.6441   357
18.6541   330
18.6641   331
18.6741   312
18.6841   308
18.6941   327
18.7041   326
18.7141   346
18.7241   297
18.7341   322
18.7441   322
18.7541   321
18.7641   319
18.7741   342
18.7841   333
18.7941   351
18.8041   326
18.8141   355
18.8241   332
18.8341   346
18.8441   354
18.8541   339
18.8641   331
18.8741   340
18.8841   347
18.8941   357
18.9041   336
18.9141   321
18.9241   350
18.9341   349
18.9441   324
18.9541   342
18.9641   341
18.9741   327
18.9841   333
18.9941   371
19.0041   338
19.0141   329
19.0241   327
19.0341   358
19.0441   335
19.0541   337
19.0641   338
19.0741   324
19.0841   297
19.0941   322
19.1041   321
19.1141   352
19.1241   327
19.1341   330
19.1441   309
19.1541   347
19.1641   334
19.1741   328
19.1841   330
19.1941   313
19.2041   313
19.2141   332
19.2241   332
19.2341   353
19.2441   323
19.2541   319
19.2641   339
19.2741   358
19.2841   328
19.2941   367
19.3041   348
19.3141   336
19.3241   327
19.3341   343
19.3441   360
19.3541   345
19.3641   364
19.3741   345
19.3841   346
19.3941   330
19.4041   353
19.4141   356
19.4241   332
19.4341   325
19.4441   337
19.4541   359
19.4641   382
19.4741   368
19.4841   361
19.4941   365
19.5041   365
19.5141   361
19.5241   359
19.5341   341
19.5441   355
19.5541   325
19.5641   332
19.5741   341
19.5841   351
19.5941   372
19.6041   344
19.6141   358
19.6241   367
19.6341   317
19.6441   328
19.6541   349
19.6641   338
19.6741   374
19.6841   358
19.6941   334
19.7041   359
19.7141   379
19.7241   326
19.7341   351
19.7441   347
19.7541   340
19.7641   336
19.7741   327
19.7841   348
19.7941   353
19.8041   374
19.8141   362
19.8241   359
19.8341   379
19.8441   387
19.8541   356
19.8641   355
19.8741   365
19.8841   363
19.8941   354
19.9041   334
19.9141   374
19.9241   354
19.9341   351
19.9441   400
19.9541   389
19.9641   345
19.9741   368
19.9841   369
19.9941   385
20.0041   355
20.0141   368
20.0241   371
20.0341   381
20.0441   333
20.0541   344
20.0641   355
20.0741   356
20.0841   351
20.0941   347
20.1041   364
20.1141   355
20.1241   369
20.1341   367
20.1441   366
20.1541   354
20.1641   364
20.1741   346
20.1841   329
20.1941   343
20.2041   360
20.2141   370
20.2241   367
20.2341   372
20.2441   372
20.2541   380
20.2641   383
20.2741   363
20.2841   365
20.2941   344
20.3041   354
20.3141   387
20.3241   364
20.3341   372
20.3441   342
20.3541   363
20.3641   372
20.3741   388
20.3841   376
20.3941   367
20.4041   373
20.4141   341
20.4241   335
20.4341   369
20.4441   375
20.4541   358
20.4641   328
20.4741   359
20.4841   359
20.4941   377
20.5041   365
20.5141   384
20.5241   393
20.5341   357
20.5441   367
20.5541   396
20.5641   399
20.5741   346
20.5841   375
20.5941   352
20.6041   351
20.6141   403
20.6241   377
20.6341   373
20.6441   373
20.6541   352
20.6641   356
20.6741   381
20.6841   391
20.6941   376
20.7041   370
20.7141   366
20.7241   381
20.7341   348
20.7441   336
20.7541   364
20.7641   350
20.7741   361
20.7841   405
20.7941   414
20.8041   377
20.8141   418
20.8241   436
20.8341   432
20.8441   423
20.8541   429
20.8641   421
20.8741   417
20.8841   434
20.8941   428
20.9041   424
20.9141   435
20.9241   462
20.9341   455
20.9441   481
20.9541   494
20.9641   474
20.9741   488
20.9841   504
20.9941   529
21.0041   547
21.0141   576
21.0241   581
21.0341   544
21.0441   538
21.0541   562
21.0641   587
21.0741   611
21.0841   557
21.0941   603
21.1041   584
21.1141   613
21.1241   585
21.1341   632
21.1441   565
21.1541   569
21.1641   557
21.1741   539
21.1841   598
21.1941   553
21.2041   545
21.2141   551
21.2241   580
21.2341   537
21.2441   527
21.2541   530
21.2641   509
21.2741   512
21.2841   489
21.2941   483
21.3041   452
21.3141   466
21.3241   452
21.3341   420
21.3441   428
21.3541   430
21.3641   409
21.3741   391
21.3841   434
21.3941   402
21.4041   389
21.4141   400
21.4241   383
21.4341   386
21.4441   384
21.4541   410
21.4641   396
21.4741   359
21.4841   363
21.4941   352
21.5041   372
21.5141   380
21.5241   389
21.5341   379
21.5441   381
21.5541   406
21.5641   365
21.5741   371
21.5841   363
21.5941   380
21.6041   350
21.6141   393
21.6241   432
21.6341   407
21.6441   399
21.6541   399
21.6641   385
21.6741   382
21.6841   409
21.6941   421
21.7041   375
21.7141   394
21.7241   374
21.7341   376
21.7441   384
21.7541   383
21.7641   372
21.7741   387
21.7841   393
21.7941   355
21.8041   417
21.8141   409
21.8241   366
21.8341   383
21.8441   377
21.8541   363
21.8641   392
21.8741   385
21.8841   414
21.8941   398
21.9041   404
21.9141   371
21.9241   382
21.9341   401
21.9441   390
21.9541   370
21.9641   402
21.9741   357
21.9841   408
21.9941   393
22.0041   408
22.0141   397
22.0241   396
22.0341   384
22.0441   387
22.0541   405
22.0641   415
22.0741   406
22.0841   378
22.0941   388
22.1041   428
22.1141   371
22.1241   406
22.1341   370
22.1441   353
22.1541   359
22.1641   385
22.1741   382
22.1841   400
22.1941   416
22.2041   387
22.2141   388
22.2241   388
22.2341   385
22.2441   387
22.2541   358
22.2641   420
22.2741   416
22.2841   406
22.2941   380
22.3041   389
22.3141   395
22.3241   429
22.3341   399
22.3441   415
22.3541   397
22.3641   397
22.3741   390
22.3841   367
22.3941   388
22.4041   404
22.4141   360
22.4241   379
22.4341   374
22.4441   373
22.4541   368
22.4641   388
22.4741   389
22.4841   405
22.4941   397
22.5041   411
22.5141   412
22.5241   385
22.5341   361
22.5441   383
22.5541   377
22.5641   383
22.5741   403
22.5841   345
22.5941   370
22.6041   372
22.6141   387
22.6241   367
22.6341   386
22.6441   399
22.6541   393
22.6641   367
22.6741   379
22.6841   372
22.6941   378
22.7041   399
22.7141   360
22.7241   391
22.7341   390
22.7441   399
22.7541   408
22.7641   385
22.7741   363
22.7841   347
22.7941   382
22.8041   375
22.8141   394
22.8241   395
22.8341   386
22.8441   392
22.8541   391
22.8641   355
22.8741   392
22.8841   382
22.8941   367
22.9041   380
22.9141   358
22.9241   421
22.9341   387
22.9441   399
22.9541   380
22.9641   406
22.9741   390
22.9841   385
22.9941   351
23.0041   373
23.0141   371
23.0241   371
23.0341   394
23.0441   368
23.0541   390
23.0641   383
23.0741   387
23.0841   361
23.0941   394
23.1041   382
23.1141   378
23.1241   413
23.1341   362
23.1441   394
23.1541   358
23.1641   354
23.1741   396
23.1841   415
23.1941   395
23.2041   396
23.2141   390
23.2241   360
23.2341   386
23.2441   390
23.2541   403
23.2641   400
23.2741   421
23.2841   377
23.2941   346
23.3041   376
23.3141   337
23.3241   404
23.3341   400
23.3441   369
23.3541   390
23.3641   388
23.3741   386
23.3841   370
23.3941   371
23.4041   403
23.4141   359
23.4241   362
23.4341   381
23.4441   419
23.4541   377
23.4641   325
23.4741   374
23.4841   389
23.4941   365
23.5041   395
23.5141   380
23.5241   383
23.5341   374
23.5441   373
23.5541   365
23.5641   378
23.5741   367
23.5841   335
23.5941   381
23.6041   407
23.6141   414
23.6241   377
23.6341   378
23.6441   337
23.6541   409
23.6641   368
23.6741   371
23.6841   400
23.6941   405
23.7041   384
23.7141   403
23.7241   431
23.7341   394
23.7441   412
23.7541   394
23.7641   446
23.7741   405
23.7841   444
23.7941   399
23.8041   409
23.8141   410
23.8241   410
23.8341   417
23.8441   393
23.8541   388
23.8641   397
23.8741   394
23.8841   349
23.8941   402
23.9041   393
23.9141   379
23.9241   387
23.9341   395
23.9441   388
23.9541   397
23.9641   417
23.9741   368
23.9841   378
23.9941   398
24.0041   383
24.0141   377
24.0241   381
24.0341   381
24.0441   375
24.0541   387
24.0641   367
24.0741   393
24.0841   368
24.0941   368
24.1041   368
24.1141   356
24.1241   374
24.1341   379
24.1441   384
24.1541   375
24.1641   379
24.1741   379
24.1841   345
24.1941   385
24.2041   337
24.2141   343
24.2241   359
24.2341   365
24.2441   368
24.2541   385
24.2641   358
24.2741   345
24.2841   368
24.2941   370
24.3041   393
24.3141   353
24.3241   348
24.3341   370
24.3441   385
24.3541   386
24.3641   346
24.3741   348
24.3841   367
24.3941   371
24.4041   373
24.4141   356
24.4241   339
24.4341   381
24.4441   356
24.4541   338
24.4641   370
24.4741   358
24.4841   374
24.4941   362
24.5041   344
24.5141   356
24.5241   326
24.5341   349
24.5441   364
24.5541   361
24.5641   358
24.5741   344
24.5841   349
24.5941   341
24.6041   353
24.6141   378
24.6241   339
24.6341   374
24.6441   367
24.6541   361
24.6641   368
24.6741   375
24.6841   373
24.6941   344
24.7041   339
24.7141   363
24.7241   344
24.7341   317
24.7441   328
24.7541   342
24.7641   344
24.7741   364
24.7841   342
24.7941   321
24.8041   332
24.8141   349
24.8241   363
24.8341   342
24.8441   353
24.8541   308
24.8641   348
24.8741   345
24.8841   352
24.8941   370
24.9041   374
24.9141   336
24.9241   333
24.9341   364
24.9441   349
24.9541   392
24.9641   344
24.9741   324
24.9841   356
24.9941   358
25.0041   369
25.0141   372
25.0241   346
25.0341   322
25.0441   350
25.0541   352
25.0641   366
25.0741   323
25.0841   351
25.0941   348
25.1041   378
25.1141   375
25.1241   322
25.1341   352
25.1441   358
25.1541   371
25.1641   380
25.1741   361
25.1841   358
25.1941   397
25.2041   366
25.2141   327
25.2241   327
25.2341   363
25.2441   336
25.2541   359
25.2641   361
25.2741   391
25.2841   368
25.2941   355
25.3041   373
25.3141   342
25.3241   350
25.3341   370
25.3441   351
25.3541   364
25.3641   367
25.3741   331
25.3841   351
25.3941   345
25.4041   357
25.4141   352
25.4241   348
25.4341   345
25.4441   351
25.4541   346
25.4641   338
25.4741   322
25.4841   353
25.4941   295
25.5041   375
25.5141   354
25.5241   347
25.5341   355
25.5441   329
25.5541   315
25.5641   357
25.5741   338
25.5841   322
25.5941   322
25.6041   352
25.6141   359
25.6241   327
25.6341   330
25.6441   359
25.6541   339
25.6641   331
25.6741   322
25.6841   327
25.6941   344
25.7041   309
25.7141   312
25.7241   347
25.7341   322
25.7441   308
25.7541   337
25.7641   332
25.7741   325
25.7841   354
25.7941   322
25.8041   317
25.8141   338
25.8241   355
25.8341   322
25.8441   314
25.8541   334
25.8641   313
25.8741   321
25.8841   328
25.8941   330
25.9041   313
25.9141   321
25.9241   324
25.9341   347
25.9441   306
25.9541   363
25.9641   315
25.9741   322
25.9841   285
25.9941   325
26.0041   359
26.0141   305
26.0241   328
26.0341   318
26.0441   322
26.0541   316
26.0641   350
26.0741   331
26.0841   330
26.0941   296
26.1041   331
26.1141   307
26.1241   345
26.1341   341
26.1441   312
26.1541   336
26.1641   326
26.1741   352
26.1841   319
26.1941   326
26.2041   314
26.2141   285
26.2241   284
26.2341   310
26.2441   301
26.2541   319
26.2641   311
26.2741   311
26.2841   327
26.2941   337
26.3041   350
26.3141   319
26.3241   301
26.3341   319
26.3441   317
26.3541   337
26.3641   324
26.3741   334
26.3841   341
26.3941   331
26.4041   331
26.4141   327
26.4241   319
26.4341   320
26.4441   312
26.4541   286
26.4641   325
26.4741   295
26.4841   336
26.4941   302
26.5041   295
26.5141   327
26.5241   318
26.5341   296
26.5441   295
26.5541   287
26.5641   299
26.5741   302
26.5841   286
26.5941   307
26.6041   321
26.6141   306
26.6241   315
26.6341   297
26.6441   331
26.6541   292
26.6641   308
26.6741   321
26.6841   295
26.6941   305
26.7041   324
26.7141   299
26.7241   306
26.7341   278
26.7441   292
26.7541   310
26.7641   300
26.7741   294
26.7841   316
26.7941   317
26.8041   321
26.8141   320
26.8241   312
26.8341   305
26.8441   327
26.8541   316
26.8641   270
26.8741   312
26.8841   336
26.8941   311
26.9041   310
26.9141   306
26.9241   311
26.9341   299
26.9441   285
26.9541   341
26.9641   306
26.9741   288
26.9841   286
26.9941   285
27.0041   324
27.0141   314
27.0241   306
27.0341   316
27.0441   329
27.0541   319
27.0641   294
27.0741   286
27.0841   293
27.0941   284
27.1041   295
27.1141   302
27.1241   332
27.1341   331
27.1441   309
27.1541   322
27.1641   294
27.1741   288
27.1841   281
27.1941   284
27.2041   309
27.2141   286
27.2241   292
27.2341   293
27.2441   294
27.2541   298
27.2641   308
27.2741   307
27.2841   329
27.2941   276
27.3041   310
27.3141   323
27.3241   288
27.3341   269
27.3441   288
27.3541   310
27.3641   311
27.3741   302
27.3841   338
27.3941   312
27.4041   308
27.4141   298
27.4241   288
27.4341   292
27.4441   289
27.4541   303
27.4641   320
27.4741   309
27.4841   285
27.4941   276
27.5041   317
27.5141   296
27.5241   295
27.5341   282
27.5441   287
27.5541   288
27.5641   265
27.5741   280
27.5841   282
27.5941   282
27.6041   275
27.6141   289
27.6241   287
27.6341   269
27.6441   276
27.6541   297
27.6641   278
27.6741   254
27.6841   317
27.6941   262
27.7041   274
27.7141   297
27.7241   276
27.7341   289
27.7441   279
27.7541   284
27.7641   291
27.7741   300
27.7841   276
27.7941   263
27.8041   251
27.8141   255
27.8241   282
27.8341   281
27.8441   257
27.8541   271
27.8641   276
27.8741   282
27.8841   289
27.8941   277
27.9041   265
27.9141   262
27.9241   247
27.9341   279
27.9441   283
27.9541   295
27.9641   263
27.9741   266
27.9841   249
27.9941   270
28.0041   271
28.0141   298
28.0241   254
28.0341   255
28.0441   254
28.0541   241
28.0641   269
28.0741   279
28.0841   279
28.0941   265
28.1041   255
28.1141   236
28.1241   233
28.1341   243
28.1441   253
28.1541   259
28.1641   255
28.1741   264
28.1841   262
28.1941   241
28.2041   290
28.2141   248
28.2241   254
28.2341   244
28.2441   248
28.2541   248
28.2641   257
28.2741   265
28.2841   271
28.2941   252
28.3041   243
28.3141   274
28.3241   243
28.3341   271
28.3441   262
28.3541   262
28.3641   243
28.3741   259
28.3841   238
28.3941   270
28.4041   264
28.4141   248
28.4241   254
28.4341   246
28.4441   254
28.4541   268
28.4641   251
28.4741   263
28.4841   264
28.4941   269
28.5041   247
28.5141   282
28.5241   257
28.5341   264
28.5441   254
28.5541   222
28.5641   270
28.5741   223
28.5841   252
28.5941   248
28.6041   232
28.6141   254
28.6241   256
28.6341   241
28.6441   262
28.6541   254
28.6641   264
28.6741   240
28.6841   242
28.6941   266
28.7041   227
28.7141   269
28.7241   285
28.7341   265
28.7441   251
28.7541   239
28.7641   231
28.7741   232
28.7841   260
28.7941   226
28.8041   242
28.8141   240
28.8241   245
28.8341   231
28.8441   230
28.8541   241
28.8641   247
28.8741   258
28.8841   244
28.8941   255
28.9041   246
28.9141   226
28.9241   221
28.9341   222
28.9441   238
28.9541   256
28.9641   242
28.9741   229
28.9841   214
28.9941   223
29.0041   231
29.0141   224
29.0241   231
29.0341   240
29.0441   246
29.0541   238
29.0641   246
29.0741   228
29.0841   234
29.0941   244
29.1041   224
29.1141   236
29.1241   223
29.1341   237
29.1441   223
29.1541   226
29.1641   243
29.1741   229
29.1841   223
29.1941   221
29.2041   222
29.2141   223
29.2241   233
29.2341   259
29.2441   224
29.2541   226
29.2641   238
29.2741   200
29.2841   228
29.2941   237
29.3041   212
29.3141   248
29.3241   219
29.3341   237
29.3441   241
29.3541   228
29.3641   233
29.3741   237
29.3841   224
29.3941   230
29.4041   213
29.4141   252
29.4241   206
29.4341   231
29.4441   237
29.4541   211
29.4641   222
29.4741   251
29.4841   233
29.4941   225
29.5041   213
29.5141   219
29.5241   192
29.5341   186
29.5441   229
29.5541   231
29.5641   213
29.5741   244
29.5841   257
29.5941   220
29.6041   214
29.6141   212
29.6241   249
29.6341   241
29.6441   230
29.6541   208
29.6641   209
29.6741   217
29.6841   206
29.6941   231
29.7041   222
29.7141   221
29.7241   232
29.7341   198
29.7441   223
29.7541   239
29.7641   201
29.7741   198
29.7841   209
29.7941   209
29.8041   222
29.8141   211
29.8241   195
29.8341   180
29.8441   219
29.8541   222
29.8641   216
29.8741   222
29.8841   206
29.8941   217
29.9041   204
29.9141   221
29.9241   202
29.9341   223
29.9441   232
29.9541   233
29.9641   210
29.9741   180
29.9841   194
29.9941   225
30.0041   205
30.0141   210
30.0241   207
30.0341   232
30.0441   225
30.0541   204
30.0641   235
30.0741   216
30.0841   217
30.0941   186
30.1041   211
30.1141   193
30.1241   201
30.1341   211
30.1441   194
30.1541   221
30.1641   219
30.1741   197
30.1841   217
30.1941   187
30.2041   207
30.2141   183
30.2241   191
30.2341   217
30.2441   198
30.2541   199
30.2641   211
30.2741   198
30.2841   215
30.2941   205
30.3041   203
30.3141   211
30.3241   194
30.3341   195
30.3441   205
30.3541   210
30.3641   216
30.3741   205
30.3841   185
30.3941   172
30.4041   196
30.4141   196
30.4241   205
30.4341   192
30.4441   196
30.4541   204
30.4641   206
30.4741   193
30.4841   203
30.4941   190
30.5041   191
30.5141   191
30.5241   201
30.5341   214
30.5441   206
30.5541   194
30.5641   196
30.5741   198
30.5841   197
30.5941   191
30.6041   179
30.6141   193
30.6241   177
30.6341   167
30.6441   199
30.6541   196
30.6641   180
30.6741   200
30.6841   183
30.6941   208
30.7041   201
30.7141   192
30.7241   175
30.7341   203
30.7441   203
30.7541   199
30.7641   189
30.7741   181
30.7841   160
30.7941   189
30.8041   176
30.8141   179
30.8241   201
30.8341   215
30.8441   198
30.8541   187
30.8641   175
30.8741   188
30.8841   200
30.8941   207
30.9041   182
30.9141   188
30.9241   178
30.9341   181
30.9441   191
30.9541   163
30.9641   183
30.9741   189
30.9841   183
30.9941   209
31.0041   184
31.0141   198
31.0241   165
31.0341   192
31.0441   177
31.0541   187
31.0641   197
31.0741   187
31.0841   179
31.0941   177
31.1041   182
31.1141   187
31.1241   172
31.1341   173
31.1441   173
31.1541   197
31.1641   202
31.1741   180
31.1841   178
31.1941   154
31.2041   177
31.2141   170
31.2241   181
31.2341   159
31.2441   181
31.2541   187
31.2641   172
31.2741   192
31.2841   206
31.2941   163
31.3041   197
31.3141   179
31.3241   163
31.3341   191
31.3441   178
31.3541   183
31.3641   168
31.3741   170
31.3841   176
31.3941   151
31.4041   184
31.4141   193
31.4241   168
31.4341   169
31.4441   174
31.4541   157
31.4641   167
31.4741   175
31.4841   169
31.4941   154
31.5041   157
31.5141   169
31.5241   173
31.5341   166
31.5441   162
31.5541   160
31.5641   174
31.5741   187
31.5841   187
31.5941   149
31.6041   163
31.6141   179
31.6241   178
31.6341   166
31.6441   155
31.6541   162
31.6641   143
31.6741   183
31.6841   158
31.6941   155
31.7041   180
31.7141   162
31.7241   173
31.7341   165
31.7441   177
31.7541   160
31.7641   160
31.7741   176
31.7841   156
31.7941   167
31.8041   178
31.8141   156
31.8241   166
31.8341   166
31.8441   192
31.8541   170
31.8641   170
31.8741   152
31.8841   170
31.8941   174
31.9041   178
31.9141   176
31.9241   167
31.9341   142
31.9441   191
31.9541   171
31.9641   148
31.9741   174
31.9841   144
31.9941   168
32.0041   181
32.0141   157
32.0241   155
32.0341   150
32.0441   152
32.0541   149
32.0641   154
32.0741   152
32.0841   184
32.0941   157
32.1041   162
32.1141   180
32.1241   167
32.1341   171
32.1441   158
32.1541   182
32.1641   165
32.1741   170
32.1841   162
32.1941   178
32.2041   168
32.2141   160
32.2241   150
32.2341   162
32.2441   159
32.2541   157
32.2641   168
32.2741   171
32.2841   140
32.2941   164
32.3041   165
32.3141   146
32.3241   169
32.3341   153
32.3441   164
32.3541   162
32.3641   163
32.3741   137
32.3841   150
32.3941   149
32.4041   172
32.4141   173
32.4241   142
32.4341   144
32.4441   156
32.4541   139
32.4641   141
32.4741   141
32.4841   112
32.4941   142
32.5041   143
32.5141   153
32.5241   152
32.5341   145
32.5441   155
32.5541   149
32.5641   161
32.5741   136
32.5841   142
32.5941   156
32.6041   147
32.6141   134
32.6241   147
32.6341   169
32.6441   135
32.6541   150
32.6641   158
32.6741   141
32.6841   142
32.6941   153
32.7041   140
32.7141   151
32.7241   130
32.7341   134
32.7441   135
32.7541   144
32.7641   127
32.7741   137
32.7841   137
32.7941   122
32.8041   116
32.8141   130
32.8241   140
32.8341   144
32.8441   129
32.8541   138
32.8641   140
32.8741   140
32.8841   139
32.8941   154
32.9041   132
32.9141   141
32.9241   137
32.9341   128
32.9441   128
32.9541   159
32.9641   137
32.9741   130
32.9841   140
32.9941   136
33.0041   129
33.0141   129
33.0241   134
33.0341   141
33.0441   124
33.0541   122
33.0641   114
33.0741   122
33.0841   123
33.0941   104
33.1041   124
33.1141   147
33.1241   142
33.1341   127
33.1441   140
33.1541   131
33.1641   133
33.1741   145
33.1841   141
33.1941   139
33.2041   126
33.2141   148
33.2241   131
33.2341   133
33.2441   130
33.2541   128
33.2641   129
33.2741   113
33.2841   142
33.2941   133
33.3041   118
33.3141   117
33.3241   123
33.3341   142
33.3441   138
33.3541   124
33.3641   142
33.3741   118
33.3841   137
33.3941   148
33.4041   108
33.4141   131
33.4241   123
33.4341   111
33.4441   116
33.4541   118
33.4641   134
33.4741   120
33.4841   114
33.4941   109
33.5041   136
33.5141   121
33.5241   115
33.5341   109
33.5441   119
33.5541    98
33.5641   112
33.5741   115
33.5841   116
33.5941   116
33.6041   117
33.6141   130
33.6241   120
33.6341   143
33.6441   121
33.6541   115
33.6641   105
33.6741   119
33.6841    97
33.6941   114
33.7041   102
33.7141   104
33.7241   106
33.7341   101
33.7441   105
33.7541    93
33.7641   109
33.7741   121
33.7841   104
33.7941   126
33.8041   111
33.8141   109
33.8241   106
33.8341   103
33.8441   118
33.8541   112
33.8641   122
33.8741   119
33.8841   112
33.8941   116
33.9041   121
33.9141   112
33.9241   112
33.9341   116
33.9441   104
33.9541   125
33.9641   113
33.9741   102
33.9841    90
33.9941   134
34.0041   132
34.0141   118
34.0241   109
34.0341   119
34.0441   122
34.0541   126
34.0641   112
34.0741    99
34.0841    96
34.0941   114
34.1041    96
34.1141    91
34.1241   105
34.1341   114
34.1441   100
34.1541   110
34.1641    81
34.1741   114
34.1841   113
34.1941   108
34.2041   116
34.2141   104
34.2241   111
34.2341   116
34.2441    84
34.2541   112
34.2641   109
34.2741   105
34.2841   111
34.2941   105
34.3041   116
34.3141   112
34.3241   112
34.3341    88
34.3441    90
34.3541    95
34.3641   100
34.3741   101
34.3841   107
34.3941   111
34.4041    92
34.4141    93
34.4241   104
34.4341   107
34.4441   101
34.4541   114
34.4641   103
34.4741    93
34.4841   104
34.4941    93
34.5041   103
34.5141    96
34.5241   110
34.5341   101
34.5441   113
34.5541   105
34.5641   101
34.5741    90
34.5841   103
34.5941    86
34.6041    91
34.6141   107
34.6241   104
34.6341    94
34.6441    95
34.6541    93
34.6641   107
34.6741    88
34.6841    92
34.6941    94
34.7041    95
34.7141    95
34.7241   101
34.7341   103
34.7441   106
34.7541    89
34.7641    90
34.7741   109
34.7841    89
34.7941    93
34.8041    85
34.8141    93
34.8241    78
34.8341    84
34.8441    82
34.8541    93
34.8641    88
34.8741    83
34.8841    82
34.8941    88
34.9041    92
34.9141   103
34.9241    96
34.9341    87
34.9441    85
34.9541    93
34.9641    96
34.9741    89
34.9841    86
34.9941   101
35.0041    81
35.0141    85
35.0241    81
35.0341    88
35.0441    89
35.0541    88
35.0641    91
35.0741    85
35.0841   101
35.0941   100
35.1041    90
35.1141    86
35.1241    94
35.1341    90
35.1441   100
35.1541    88
35.1641    92
35.1741    99
35.1841    87
35.1941    88
35.2041    79
35.2141   101
35.2241    97
35.2341    98
35.2441    81
35.2541    89
35.2641    79
35.2741    88
35.2841    81
35.2941    79
35.3041    94
35.3141    85
35.3241    92
35.3341    78
35.3441   109
35.3541    90
35.3641    88
35.3741    95
35.3841    71
35.3941    89
35.4041    71
35.4141   102
35.4241    84
35.4341    87
35.4441    75
35.4541    81
35.4641    86
35.4741   100
35.4841    81
35.4941    79
35.5041    84
35.5141    77
35.5241    99
35.5341    70
35.5441    83
35.5541    82
35.5641    75
35.5741    79
35.5841    82
35.5941    79
35.6041    79
35.6141    86
35.6241    71
35.6341    78
35.6441    85
35.6541    73
35.6641    97
35.6741    72
35.6841    75
35.6941    78
35.7041    80
35.7141   101
35.7241    89
35.7341    92
35.7441    90
35.7541    72
35.7641    71
35.7741    78
35.7841    85
35.7941    86
35.8041    78
35.8141    77
35.8241    70
35.8341    78
35.8441    78
35.8541    74
35.8641    65
35.8741    87
35.8841    60
35.8941    67
35.9041    72
35.9141    70
35.9241    72
35.9341    80
35.9441    77
35.9541    80
35.9641    70
35.9741    66
35.9841    75
35.9941    88
36.0041    61
36.0141    83
36.0241    67
36.0341    74
36.0441    80
36.0541    80
36.0641    85
36.0741    92
36.0841    66
36.0941    76
36.1041    71
36.1141    76
36.1241    59
36.1341    80
36.1441    73
36.1541    69
36.1641    80
36.1741    73
36.1841    75
36.1941    80
36.2041    80
36.2141    75
36.2241    71
36.2341    73
36.2441    56
36.2541    77
36.2641    76
36.2741    68
36.2841    75
36.2941    87
36.3041    86
36.3141    71
36.3241    72
36.3341    60
36.3441    76
36.3541    72
36.3641    65
36.3741    75
36.3841    68
36.3941    79
36.4041    64
36.4141    79
36.4241    70
36.4341    78
36.4441    68
36.4541    65
36.4641    69
36.4741    71
36.4841    79
36.4941    62
36.5041    67
36.5141    70
36.5241    56
36.5341    55
36.5441    72
36.5541    64
36.5641    66
36.5741    63
36.5841    65
36.5941    63
36.6041    68
36.6141    79
36.6241    68
36.6341    64
36.6441    62
36.6541    65
36.6641    56
36.6741    67
36.6841    58
36.6941    69
36.7041    65
36.7141    64
36.7241    58
36.7341    64
36.7441    70
36.7541    45
36.7641    75
36.7741    54
36.7841    59
36.7941    60
36.8041    61
36.8141    66
36.8241    72
36.8341    55
36.8441    79
36.8541    65
36.8641    67
36.8741    55
36.8841    70
36.8941    78
36.9041    59
36.9141    65
36.9241    40
36.9341    47
36.9441    53
36.9541    62
36.9641    56
36.9741    66
36.9841    65
36.9941    69
37.0041    64
37.0141    73
37.0241    55
37.0341    54
37.0441    60
37.0541    49
37.0641    59
37.0741    71
37.0841    62
37.0941    58
37.1041    65
37.1141    63
37.1241    56
37.1341    70
37.1441    53
37.1541    51
37.1641    58
37.1741    45
37.1841    58
37.1941    66
37.2041    66
37.2141    46
37.2241    51
37.2341    55
37.2441    74
37.2541    54
37.2641    60
37.2741    67
37.2841    56
37.2941    52
37.3041    60
37.3141    62
37.3241    58
37.3341    55
37.3441    54
37.3541    65
37.3641    62
37.3741    54
37.3841    49
37.3941    52
37.4041    60
37.4141    52
37.4241    55
37.4341    60
37.4441    63
37.4541    59
37.4641    46
37.4741    57
37.4841    64
37.4941    61
37.5041    57
37.5141    50
37.5241    45
37.5341    48
37.5441    37
37.5541    50
37.5641    50
37.5741    54
37.5841    44
37.5941    47
37.6041    55
37.6141    54
37.6241    44
37.6341    38
37.6441    56
37.6541    70
37.6641    52
37.6741    48
37.6841    58
37.6941    49
37.7041    52
37.7141    41
37.7241    54
37.7341    57
37.7441    29
37.7541    56
37.7641    58
37.7741    44
37.7841    50
37.7941    60
37.8041    55
37.8141    44
37.8241    54
37.8341    49
37.8441    44
37.8541    51
37.8641    43
37.8741    49
37.8841    40
37.8941    47
37.9041    41
37.9141    39
37.9241    39
37.9341    49
37.9441    51
37.9541    45
37.9641    35
37.9741    37
37.9841    36
37.9941    59
38.0041    46
38.0141    44
38.0241    45
38.0341    49
38.0441    50
38.0541    40
38.0641    51
38.0741    47
38.0841    48
38.0941    40
38.1041    52
38.1141    44
38.1241    53
38.1341    51
38.1441    32
38.1541    57
38.1641    52
38.1741    47
38.1841    52
38.1941    33
38.2041    42
38.2141    55
38.2241    34
38.2341    59
38.2441    54
38.2541    36
38.2641    35
38.2741    40
38.2841    68
38.2941    51
38.3041    38
38.3141    47
38.3241    52
38.3341    47
38.3441    36
38.3541    40
38.3641    43
38.3741    43
38.3841    39
38.3941    41
38.4041    45
38.4141    36
38.4241    47
38.4341    31
38.4441    41
38.4541    45
38.4641    60
38.4741    48
38.4841    41
38.4941    46
38.5041    32
38.5141    45
38.5241    44
38.5341    41
38.5441    51
38.5541    34
38.5641    37
38.5741    38
38.5841    38
38.5941    43
38.6041    48
38.6141    34
38.6241    43
38.6341    31
38.6441    29
38.6541    30
38.6641    41
38.6741    40
38.6841    27
38.6941    44
38.7041    49
38.7141    41
38.7241    29
38.7341    36
38.7441    42
38.7541    28
38.7641    38
38.7741    31
38.7841    35
38.7941    40
38.8041    46
38.8141    39
38.8241    45
38.8341    28
38.8441    42
38.8541    28
38.8641    29
38.8741    31
38.8841    27
38.8941    31
38.9041    39
38.9141    26
38.9241    35
38.9341    31
38.9441    23
38.9541    37
38.9641    35
38.9741    41
38.9841    32
38.9941    29
39.0041    40
39.0141    30
39.0241    41
39.0341    38
39.0441    41
39.0541    31
39.0641    39
39.0741    42
39.0841    35
39.0941    28
39.1041    32
39.1141    31
39.1241    30
39.1341    32
39.1441    34
39.1541    29
39.1641    33
39.1741    28
39.1841    31
39.1941    21
39.2041    33
39.2141    44
39.2241    32
39.2341    22
39.2441    33
39.2541    33
39.2641    23
39.2741    37
39.2841    38
39.2941    39
39.3041    42
39.3141    35
39.3241    31
39.3341    39
39.3441    31
39.3541    40
39.3641    27
39.3741    30
39.3841    21
39.3941    31
39.4041    21
39.4141    23
39.4241    32
39.4341    22
39.4441    32
39.4541    31
39.4641    34
39.4741    23
39.4841    44
39.4941    35
39.5041    21
39.5141    33
39.5241    24
39.5341    30
39.5441    25
39.5541    21
39.5641    27
39.5741    28
39.5841    25
39.5941    27
39.6041    31
39.6141    29
39.6241    29
39.6341    22
39.6441    40
39.6541    32
39.6641    24
39.6741    30
39.6841    28
39.6941    23
39.7041    22
39.7141    34
39.7241    25
39.7341    27
39.7441    24
39.7541    26
39.7641    32
39.7741    23
39.7841    30
39.7941    28
39.8041    26
39.8141    21
39.8241    26
39.8341    25
39.8441    23
39.8541    21
39.8641    21
39.8741    26
39.8841    27
39.8941    21
39.9041    26
39.9141    25
39.9241    18
39.9341    20
39.9441    25
39.9541    23
39.9641    22
39.9741    20
39.9841    23
