Bruker Nano GmbH Berlin, Germany
Esprit 1.9

Date: 4/1/2021 5:04:25 PM
Real time: 14242
Life time: 13121
Pulse density: 119763


Detector type: XFlash 430
Window type: Custom type
Detector thickness: 0.45
Si dead layer:0.029

Calibration, lin.: 10
Calibration, abs.: -955.9
Mn FWHM: 137.05
Fano factor: 0.121
Channels: 4095

Energy Counts
-0.9559     0
-0.9459     0
-0.9359     0
-0.9259     0
-0.9159     0
-0.9059     0
-0.8959     0
-0.8859     0
-0.8759     0
-0.8659     0
-0.8559     0
-0.8459     0
-0.8359     0
-0.8259     0
-0.8159     0
-0.8059     0
-0.7959     0
-0.7859     0
-0.7759     0
-0.7659     0
-0.7559     0
-0.7459     0
-0.7359     0
-0.7259     0
-0.7159     0
-0.7059     0
-0.6959     0
-0.6859     0
-0.6759     0
-0.6659     0
-0.6559     0
-0.6459     0
-0.6359     0
-0.6259     0
-0.6159     0
-0.6059     0
-0.5959     0
-0.5859     0
-0.5759     0
-0.5659     0
-0.5559     0
-0.5459     0
-0.5359     0
-0.5259     0
-0.5159     0
-0.5059     0
-0.4959     0
-0.4859     0
-0.4759     0
-0.4659     0
-0.4559     0
-0.4459     0
-0.4359     0
-0.4259     0
-0.4159     0
-0.4059     0
-0.3959     0
-0.3859     0
-0.3759     0
-0.3659     0
-0.3559     0
-0.3459     0
-0.3359     0
-0.3259     0
-0.3159     0
-0.3059     0
-0.2959     0
-0.2859     0
-0.2759     0
-0.2659     0
-0.2559     0
-0.2459     0
-0.2359     0
-0.2259     0
-0.2159     0
-0.2059     0
-0.1959     0
-0.1859     0
-0.1759     0
-0.1659     0
-0.1559     0
-0.1459     0
-0.1359     0
-0.1259     0
-0.1159     2
-0.1059     5
-0.0959    36
-0.0859   138
-0.0759   529
-0.0659  1455
-0.0559  3906
-0.0459  8425
-0.0359 15497
-0.0259 24930
-0.0159 34124
-0.0059 40254
 0.0041 40331
 0.0141 35248
 0.0241 25712
 0.0341 16196
 0.0441  8733
 0.0541  4070
 0.0641  1661
 0.0741   568
 0.0841   174
 0.0941    50
 0.1041    18
 0.1141    14
 0.1241     6
 0.1341     6
 0.1441     7
 0.1541     4
 0.1641     4
 0.1741     2
 0.1841   119
 0.1941   240
 0.2041   195
 0.2141   185
 0.2241   200
 0.2341   193
 0.2441   197
 0.2541   194
 0.2641   191
 0.2741   228
 0.2841   219
 0.2941   210
 0.3041   191
 0.3141   170
 0.3241   191
 0.3341   183
 0.3441   180
 0.3541   176
 0.3641   188
 0.3741   199
 0.3841   178
 0.3941   184
 0.4041   181
 0.4141   188
 0.4241   181
 0.4341   166
 0.4441   170
 0.4541   173
 0.4641   169
 0.4741   178
 0.4841   171
 0.4941   182
 0.5041   175
 0.5141   176
 0.5241   185
 0.5341   165
 0.5441   166
 0.5541   185
 0.5641   186
 0.5741   178
 0.5841   161
 0.5941   160
 0.6041   160
 0.6141   141
 0.6241   148
 0.6341   157
 0.6441   156
 0.6541   154
 0.6641   147
 0.6741   147
 0.6841   141
 0.6941   149
 0.7041   154
 0.7141   152
 0.7241   148
 0.7341   144
 0.7441   139
 0.7541   157
 0.7641   155
 0.7741   156
 0.7841   154
 0.7941   137
 0.8041   138
 0.8141   134
 0.8241   138
 0.8341   130
 0.8441   140
 0.8541   153
 0.8641   144
 0.8741   146
 0.8841   124
 0.8941   138
 0.9041   153
 0.9141   149
 0.9241   145
 0.9341   144
 0.9441   150
 0.9541   136
 0.9641   118
 0.9741   134
 0.9841   126
 0.9941   125
 1.0041   124
 1.0141   136
 1.0241   147
 1.0341   132
 1.0441   122
 1.0541   116
 1.0641   141
 1.0741   138
 1.0841   126
 1.0941   130
 1.1041   122
 1.1141   120
 1.1241   138
 1.1341   135
 1.1441   124
 1.1541   118
 1.1641   130
 1.1741   127
 1.1841   121
 1.1941   130
 1.2041   118
 1.2141   123
 1.2241   125
 1.2341   136
 1.2441   137
 1.2541   119
 1.2641   121
 1.2741   114
 1.2841   131
 1.2941   125
 1.3041   147
 1.3141   137
 1.3241   121
 1.3341   104
 1.3441   115
 1.3541   122
 1.3641   121
 1.3741   114
 1.3841   107
 1.3941   117
 1.4041   107
 1.4141   101
 1.4241   113
 1.4341   110
 1.4441   126
 1.4541   120
 1.4641   107
 1.4741   109
 1.4841   130
 1.4941   131
 1.5041   122
 1.5141   112
 1.5241   105
 1.5341   108
 1.5441   107
 1.5541   113
 1.5641   122
 1.5741   110
 1.5841    94
 1.5941   117
 1.6041   122
 1.6141   109
 1.6241   117
 1.6341   103
 1.6441   108
 1.6541   157
 1.6641   197
 1.6741   233
 1.6841   293
 1.6941   356
 1.7041   382
 1.7141   456
 1.7241   559
 1.7341   578
 1.7441   543
 1.7541   490
 1.7641   450
 1.7741   425
 1.7841   351
 1.7941   263
 1.8041   264
 1.8141   196
 1.8241   189
 1.8341   143
 1.8441   168
 1.8541   154
 1.8641   143
 1.8741   138
 1.8841   131
 1.8941   111
 1.9041   128
 1.9141    98
 1.9241   135
 1.9341   114
 1.9441   123
 1.9541   132
 1.9641   133
 1.9741   136
 1.9841   146
 1.9941   144
 2.0041   148
 2.0141   161
 2.0241   150
 2.0341   161
 2.0441   149
 2.0541   123
 2.0641   121
 2.0741   124
 2.0841   106
 2.0941   129
 2.1041   107
 2.1141   107
 2.1241   113
 2.1341   112
 2.1441    99
 2.1541   100
 2.1641   106
 2.1741   105
 2.1841    98
 2.1941   101
 2.2041   106
 2.2141    99
 2.2241   110
 2.2341   108
 2.2441    89
 2.2541    89
 2.2641   101
 2.2741   105
 2.2841    97
 2.2941   107
 2.3041    98
 2.3141   108
 2.3241   111
 2.3341   106
 2.3441   109
 2.3541    99
 2.3641    79
 2.3741   102
 2.3841    86
 2.3941    95
 2.4041   110
 2.4141   116
 2.4241    97
 2.4341    96
 2.4441    93
 2.4541   107
 2.4641    90
 2.4741    72
 2.4841    99
 2.4941    92
 2.5041    88
 2.5141    91
 2.5241   100
 2.5341    79
 2.5441    88
 2.5541    96
 2.5641    85
 2.5741    87
 2.5841    89
 2.5941    96
 2.6041    94
 2.6141   100
 2.6241   104
 2.6341   109
 2.6441   104
 2.6541    83
 2.6641    80
 2.6741    89
 2.6841    80
 2.6941    84
 2.7041    91
 2.7141    94
 2.7241    81
 2.7341   101
 2.7441    89
 2.7541    90
 2.7641    85
 2.7741    91
 2.7841   102
 2.7941   105
 2.8041    92
 2.8141   106
 2.8241    76
 2.8341   100
 2.8441    87
 2.8541    95
 2.8641    93
 2.8741    91
 2.8841   103
 2.8941    98
 2.9041    88
 2.9141    82
 2.9241    97
 2.9341    93
 2.9441    84
 2.9541    87
 2.9641    73
 2.9741    87
 2.9841    77
 2.9941    89
 3.0041    94
 3.0141    77
 3.0241    72
 3.0341    79
 3.0441    89
 3.0541    87
 3.0641    97
 3.0741    85
 3.0841    90
 3.0941    84
 3.1041    70
 3.1141    66
 3.1241    65
 3.1341    76
 3.1441    77
 3.1541    81
 3.1641    86
 3.1741    72
 3.1841    68
 3.1941    81
 3.2041    83
 3.2141    93
 3.2241    82
 3.2341    75
 3.2441    94
 3.2541   100
 3.2641   114
 3.2741   110
 3.2841   138
 3.2941   123
 3.3041   155
 3.3141   155
 3.3241   147
 3.3341   144
 3.3441   127
 3.3541   105
 3.3641   102
 3.3741   101
 3.3841    94
 3.3941    72
 3.4041    81
 3.4141    74
 3.4241    81
 3.4341    69
 3.4441    78
 3.4541    80
 3.4641    72
 3.4741    81
 3.4841    69
 3.4941    67
 3.5041    61
 3.5141    83
 3.5241    90
 3.5341    75
 3.5441    89
 3.5541    97
 3.5641   121
 3.5741   134
 3.5841   150
 3.5941   168
 3.6041   198
 3.6141   272
 3.6241   379
 3.6341   432
 3.6441   511
 3.6541   605
 3.6641   677
 3.6741   735
 3.6841   755
 3.6941   759
 3.7041   736
 3.7141   655
 3.7241   556
 3.7341   512
 3.7441   387
 3.7541   365
 3.7641   273
 3.7741   216
 3.7841   147
 3.7941   127
 3.8041    99
 3.8141    84
 3.8241    74
 3.8341    67
 3.8441    73
 3.8541    61
 3.8641    59
 3.8741    66
 3.8841    72
 3.8941    64
 3.9041    85
 3.9141    69
 3.9241    82
 3.9341    95
 3.9441    84
 3.9541   103
 3.9641    97
 3.9741   133
 3.9841   124
 3.9941   116
 4.0041   139
 4.0141   155
 4.0241   145
 4.0341   137
 4.0441   134
 4.0541   123
 4.0641   126
 4.0741   106
 4.0841    64
 4.0941    76
 4.1041    80
 4.1141    61
 4.1241    71
 4.1341    73
 4.1441    60
 4.1541    48
 4.1641    63
 4.1741    51
 4.1841    63
 4.1941    64
 4.2041    68
 4.2141    56
 4.2241    53
 4.2341    40
 4.2441    45
 4.2541    49
 4.2641    66
 4.2741    48
 4.2841    51
 4.2941    58
 4.3041    64
 4.3141    51
 4.3241    60
 4.3341    46
 4.3441    61
 4.3541    65
 4.3641    75
 4.3741    82
 4.3841    82
 4.3941    98
 4.4041   136
 4.4141   158
 4.4241   165
 4.4341   200
 4.4441   257
 4.4541   316
 4.4641   359
 4.4741   387
 4.4841   433
 4.4941   391
 4.5041   437
 4.5141   429
 4.5241   435
 4.5341   417
 4.5441   363
 4.5541   321
 4.5641   259
 4.5741   192
 4.5841   186
 4.5941   168
 4.6041   127
 4.6141   106
 4.6241   108
 4.6341    90
 4.6441    70
 4.6541    86
 4.6641   112
 4.6741    76
 4.6841    86
 4.6941    73
 4.7041    78
 4.7141    68
 4.7241    71
 4.7341    60
 4.7441    59
 4.7541    63
 4.7641    65
 4.7741    62
 4.7841    73
 4.7941    85
 4.8041    72
 4.8141    98
 4.8241   102
 4.8341   102
 4.8441   118
 4.8541   115
 4.8641   128
 4.8741   115
 4.8841   129
 4.8941   142
 4.9041   144
 4.9141   183
 4.9241   153
 4.9341   164
 4.9441   152
 4.9541   148
 4.9641   134
 4.9741   135
 4.9841   136
 4.9941   126
 5.0041   113
 5.0141   114
 5.0241    90
 5.0341    82
 5.0441    77
 5.0541    81
 5.0641    78
 5.0741    79
 5.0841    73
 5.0941    62
 5.1041    67
 5.1141    69
 5.1241    70
 5.1341    74
 5.1441    59
 5.1541    77
 5.1641    83
 5.1741    71
 5.1841    96
 5.1941    93
 5.2041    97
 5.2141    93
 5.2241    79
 5.2341    67
 5.2441    85
 5.2541    85
 5.2641    68
 5.2741    65
 5.2841    80
 5.2941    85
 5.3041    98
 5.3141    89
 5.3241   113
 5.3341   116
 5.3441   122
 5.3541   148
 5.3641   169
 5.3741   160
 5.3841   186
 5.3941   191
 5.4041   189
 5.4141   238
 5.4241   209
 5.4341   178
 5.4441   177
 5.4541   167
 5.4641   176
 5.4741   127
 5.4841   119
 5.4941   115
 5.5041   115
 5.5141    87
 5.5241    83
 5.5341    92
 5.5441    94
 5.5541    86
 5.5641    79
 5.5741    85
 5.5841    89
 5.5941    78
 5.6041    93
 5.6141    65
 5.6241    69
 5.6341    92
 5.6441    99
 5.6541    83
 5.6641    81
 5.6741    99
 5.6841    95
 5.6941    85
 5.7041   100
 5.7141   128
 5.7241   117
 5.7341   163
 5.7441   175
 5.7541   242
 5.7641   303
 5.7741   371
 5.7841   477
 5.7941   639
 5.8041   832
 5.8141   981
 5.8241  1220
 5.8341  1462
 5.8441  1727
 5.8541  1874
 5.8641  2036
 5.8741  2237
 5.8841  2396
 5.8941  2411
 5.9041  2336
 5.9141  2206
 5.9241  2062
 5.9341  1908
 5.9441  1615
 5.9541  1474
 5.9641  1149
 5.9741  1014
 5.9841   800
 5.9941   594
 6.0041   442
 6.0141   375
 6.0241   278
 6.0341   254
 6.0441   200
 6.0541   170
 6.0641   142
 6.0741   131
 6.0841   150
 6.0941   154
 6.1041   133
 6.1141   147
 6.1241   143
 6.1341   153
 6.1441   174
 6.1541   172
 6.1641   218
 6.1741   219
 6.1841   273
 6.1941   362
 6.2041   444
 6.2141   591
 6.2241   831
 6.2341  1144
 6.2441  1631
 6.2541  2264
 6.2641  3187
 6.2741  4296
 6.2841  5859
 6.2941  8057
 6.3041 10206
 6.3141 12966
 6.3241 16199
 6.3341 19200
 6.3441 22706
 6.3541 26061
 6.3641 28766
 6.3741 30960
 6.3841 32664
 6.3941 33346
 6.4041 33273
 6.4141 32446
 6.4241 30542
 6.4341 27678
 6.4441 25254
 6.4541 21738
 6.4641 18534
 6.4741 14960
 6.4841 12171
 6.4941  9546
 6.5041  7278
 6.5141  5478
 6.5241  4073
 6.5341  2804
 6.5441  2098
 6.5541  1444
 6.5641  1051
 6.5741   759
 6.5841   552
 6.5941   385
 6.6041   303
 6.6141   252
 6.6241   193
 6.6341   178
 6.6441   182
 6.6541   175
 6.6641   164
 6.6741   130
 6.6841   180
 6.6941   143
 6.7041   153
 6.7141   173
 6.7241   166
 6.7341   150
 6.7441   149
 6.7541   151
 6.7641   157
 6.7741   184
 6.7841   203
 6.7941   225
 6.8041   209
 6.8141   220
 6.8241   219
 6.8341   217
 6.8441   249
 6.8541   303
 6.8641   347
 6.8741   386
 6.8841   436
 6.8941   501
 6.9041   650
 6.9141   782
 6.9241  1013
 6.9341  1259
 6.9441  1472
 6.9541  1881
 6.9641  2291
 6.9741  2711
 6.9841  3066
 6.9941  3662
 7.0041  3945
 7.0141  4522
 7.0241  4897
 7.0341  5258
 7.0441  5440
 7.0541  5400
 7.0641  5266
 7.0741  5138
 7.0841  4767
 7.0941  4408
 7.1041  3808
 7.1141  3264
 7.1241  2887
 7.1341  2348
 7.1441  1974
 7.1541  1599
 7.1641  1290
 7.1741   975
 7.1841   733
 7.1941   578
 7.2041   431
 7.2141   346
 7.2241   277
 7.2341   215
 7.2441   214
 7.2541   175
 7.2641   151
 7.2741   173
 7.2841   177
 7.2941   147
 7.3041   152
 7.3141   163
 7.3241   174
 7.3341   214
 7.3441   204
 7.3541   219
 7.3641   223
 7.3741   241
 7.3841   286
 7.3941   297
 7.4041   290
 7.4141   317
 7.4241   338
 7.4341   341
 7.4441   360
 7.4541   362
 7.4641   362
 7.4741   345
 7.4841   340
 7.4941   342
 7.5041   347
 7.5141   307
 7.5241   300
 7.5341   264
 7.5441   211
 7.5541   218
 7.5641   183
 7.5741   179
 7.5841   175
 7.5941   132
 7.6041   152
 7.6141   152
 7.6241   135
 7.6341   172
 7.6441   141
 7.6541   130
 7.6641   162
 7.6741   152
 7.6841   132
 7.6941   148
 7.7041   130
 7.7141   152
 7.7241   157
 7.7341   132
 7.7441   181
 7.7541   161
 7.7641   176
 7.7741   163
 7.7841   167
 7.7941   175
 7.8041   170
 7.8141   183
 7.8241   185
 7.8341   164
 7.8441   203
 7.8541   206
 7.8641   197
 7.8741   220
 7.8841   229
 7.8941   231
 7.9041   228
 7.9141   243
 7.9241   253
 7.9341   270
 7.9441   278
 7.9541   291
 7.9641   310
 7.9741   338
 7.9841   389
 7.9941   403
 8.0041   417
 8.0141   476
 8.0241   497
 8.0341   479
 8.0441   562
 8.0541   608
 8.0641   614
 8.0741   649
 8.0841   684
 8.0941   757
 8.1041   813
 8.1141   791
 8.1241   837
 8.1341   901
 8.1441   917
 8.1541   916
 8.1641   931
 8.1741   961
 8.1841  1005
 8.1941  1078
 8.2041   980
 8.2141  1011
 8.2241   984
 8.2341   989
 8.2441  1080
 8.2541  1129
 8.2641  1163
 8.2741  1240
 8.2841  1276
 8.2941  1402
 8.3041  1508
 8.3141  1536
 8.3241  1689
 8.3341  1787
 8.3441  1858
 8.3541  1963
 8.3641  2185
 8.3741  2132
 8.3841  2184
 8.3941  2159
 8.4041  2156
 8.4141  1985
 8.4241  1878
 8.4341  1699
 8.4441  1620
 8.4541  1478
 8.4641  1311
 8.4741  1084
 8.4841   962
 8.4941   865
 8.5041   748
 8.5141   623
 8.5241   547
 8.5341   497
 8.5441   417
 8.5541   434
 8.5641   387
 8.5741   370
 8.5841   389
 8.5941   374
 8.6041   377
 8.6141   411
 8.6241   409
 8.6341   402
 8.6441   376
 8.6541   386
 8.6641   410
 8.6741   384
 8.6841   369
 8.6941   329
 8.7041   323
 8.7141   303
 8.7241   267
 8.7341   266
 8.7441   264
 8.7541   245
 8.7641   238
 8.7741   230
 8.7841   229
 8.7941   214
 8.8041   232
 8.8141   228
 8.8241   228
 8.8341   218
 8.8441   204
 8.8541   221
 8.8641   213
 8.8741   213
 8.8841   200
 8.8941   242
 8.9041   222
 8.9141   236
 8.9241   217
 8.9341   215
 8.9441   234
 8.9541   241
 8.9641   238
 8.9741   227
 8.9841   238
 8.9941   246
 9.0041   233
 9.0141   255
 9.0241   259
 9.0341   264
 9.0441   271
 9.0541   303
 9.0641   289
 9.0741   305
 9.0841   312
 9.0941   307
 9.1041   335
 9.1141   331
 9.1241   348
 9.1341   388
 9.1441   393
 9.1541   396
 9.1641   416
 9.1741   428
 9.1841   449
 9.1941   491
 9.2041   525
 9.2141   521
 9.2241   556
 9.2341   561
 9.2441   591
 9.2541   579
 9.2641   670
 9.2741   653
 9.2841   660
 9.2941   707
 9.3041   757
 9.3141   811
 9.3241   803
 9.3341   823
 9.3441   909
 9.3541   899
 9.3641   876
 9.3741   913
 9.3841   927
 9.3941   990
 9.4041   981
 9.4141   931
 9.4241   926
 9.4341   987
 9.4441  1058
 9.4541  1056
 9.4641  1030
 9.4741  1001
 9.4841  1049
 9.4941  1087
 9.5041  1115
 9.5141  1160
 9.5241  1178
 9.5341  1202
 9.5441  1284
 9.5541  1346
 9.5641  1411
 9.5741  1485
 9.5841  1567
 9.5941  1571
 9.6041  1746
 9.6141  1814
 9.6241  1930
 9.6341  1990
 9.6441  2046
 9.6541  2103
 9.6641  2081
 9.6741  2050
 9.6841  2055
 9.6941  1923
 9.7041  1885
 9.7141  1777
 9.7241  1645
 9.7341  1594
 9.7441  1465
 9.7541  1415
 9.7641  1263
 9.7741  1142
 9.7841  1060
 9.7941  1026
 9.8041   957
 9.8141   926
 9.8241   905
 9.8341   865
 9.8441   847
 9.8541   843
 9.8641   825
 9.8741   815
 9.8841   855
 9.8941   863
 9.9041   902
 9.9141   915
 9.9241   891
 9.9341   943
 9.9441   920
 9.9541   931
 9.9641   901
 9.9741   892
 9.9841   851
 9.9941   804
10.0041   774
10.0141   734
10.0241   664
10.0341   616
10.0441   578
10.0541   492
10.0641   424
10.0741   412
10.0841   359
10.0941   292
10.1041   276
10.1141   265
10.1241   239
10.1341   241
10.1441   217
10.1541   190
10.1641   184
10.1741   170
10.1841   169
10.1941   151
10.2041   157
10.2141   168
10.2241   157
10.2341   145
10.2441   141
10.2541   140
10.2641   131
10.2741   129
10.2841   135
10.2941   121
10.3041   124
10.3141   118
10.3241   123
10.3341   122
10.3441   114
10.3541   125
10.3641   135
10.3741   127
10.3841   121
10.3941   133
10.4041   113
10.4141   126
10.4241   130
10.4341   122
10.4441   115
10.4541   131
10.4641   133
10.4741   132
10.4841   132
10.4941   127
10.5041   128
10.5141   122
10.5241   141
10.5341   130
10.5441   132
10.5541   156
10.5641   134
10.5741   149
10.5841   142
10.5941   144
10.6041   154
10.6141   143
10.6241   139
10.6341   142
10.6441   152
10.6541   133
10.6641   140
10.6741   137
10.6841   147
10.6941   149
10.7041   149
10.7141   150
10.7241   151
10.7341   170
10.7441   166
10.7541   160
10.7641   182
10.7741   178
10.7841   185
10.7941   180
10.8041   195
10.8141   185
10.8241   215
10.8341   197
10.8441   212
10.8541   228
10.8641   208
10.8741   210
10.8841   215
10.8941   197
10.9041   192
10.9141   205
10.9241   223
10.9341   225
10.9441   216
10.9541   212
10.9641   228
10.9741   201
10.9841   179
10.9941   202
11.0041   227
11.0141   209
11.0241   208
11.0341   199
11.0441   190
11.0541   184
11.0641   196
11.0741   192
11.0841   189
11.0941   176
11.1041   191
11.1141   190
11.1241   183
11.1341   192
11.1441   192
11.1541   204
11.1641   197
11.1741   205
11.1841   222
11.1941   245
11.2041   256
11.2141   253
11.2241   268
11.2341   294
11.2441   276
11.2541   306
11.2641   288
11.2741   280
11.2841   296
11.2941   309
11.3041   295
11.3141   295
11.3241   292
11.3341   266
11.3441   239
11.3541   231
11.3641   243
11.3741   225
11.3841   207
11.3941   193
11.4041   206
11.4141   192
11.4241   175
11.4341   177
11.4441   151
11.4541   148
11.4641   154
11.4741   144
11.4841   154
11.4941   157
11.5041   150
11.5141   157
11.5241   159
11.5341   148
11.5441   133
11.5541   145
11.5641   156
11.5741   154
11.5841   150
11.5941   164
11.6041   169
11.6141   167
11.6241   157
11.6341   161
11.6441   156
11.6541   162
11.6641   167
11.6741   157
11.6841   156
11.6941   147
11.7041   147
11.7141   154
11.7241   139
11.7341   126
11.7441   125
11.7541   131
11.7641   128
11.7741   123
11.7841   117
11.7941   118
11.8041   108
11.8141   112
11.8241   121
11.8341   113
11.8441    97
11.8541   104
11.8641   106
11.8741   112
11.8841   114
11.8941   109
11.9041   111
11.9141   101
11.9241   112
11.9341    94
11.9441   114
11.9541   120
11.9641   120
11.9741   119
11.9841   124
11.9941   113
12.0041   103
12.0141   121
12.0241   128
12.0341   116
12.0441   120
12.0541   120
12.0641   125
12.0741   120
12.0841   125
12.0941   120
12.1041   117
12.1141   133
12.1241   116
12.1341   108
12.1441   123
12.1541   107
12.1641   107
12.1741   114
12.1841   120
12.1941   115
12.2041   108
12.2141   108
12.2241   107
12.2341   105
12.2441   109
12.2541   115
12.2641   115
12.2741   110
12.2841   104
12.2941   103
12.3041   107
12.3141   112
12.3241   109
12.3341   102
12.3441   105
12.3541   111
12.3641   111
12.3741   108
12.3841   100
12.3941    96
12.4041   101
12.4141   109
12.4241   117
12.4341   119
12.4441   115
12.4541   112
12.4641   110
12.4741   108
12.4841   105
12.4941   111
12.5041   112
12.5141   119
12.5241   129
12.5341   118
12.5441   113
12.5541   121
12.5641   119
12.5741   122
12.5841   121
12.5941   127
12.6041   136
12.6141   132
12.6241   136
12.6341   130
12.6441   118
12.6541   117
12.6641   120
12.6741   121
12.6841   127
12.6941   128
12.7041   122
12.7141   121
12.7241   123
12.7341   119
12.7441   118
12.7541   119
12.7641   119
12.7741   121
12.7841   123
12.7941   122
12.8041   121
12.8141   125
12.8241   131
12.8341   128
12.8441   118
12.8541   112
12.8641   117
12.8741   126
12.8841   129
12.8941   128
12.9041   133
12.9141   136
12.9241   128
12.9341   119
12.9441   122
12.9541   127
12.9641   127
12.9741   126
12.9841   129
12.9941   132
13.0041   135
13.0141   143
13.0241   134
13.0341   139
13.0441   131
13.0541   136
13.0641   135
13.0741   125
13.0841   132
13.0941   132
13.1041   137
13.1141   141
13.1241   135
13.1341   132
13.1441   129
13.1541   138
13.1641   140
13.1741   135
13.1841   125
13.1941   127
13.2041   132
13.2141   134
13.2241   144
13.2341   149
13.2441   160
13.2541   156
13.2641   150
13.2741   152
13.2841   138
13.2941   134
13.3041   145
13.3141   153
13.3241   157
13.3341   155
13.3441   155
13.3541   165
13.3641   179
13.3741   181
13.3841   170
13.3941   162
13.4041   162
13.4141   162
13.4241   158
13.4341   157
13.4441   162
13.4541   164
13.4641   161
13.4741   160
13.4841   158
13.4941   159
13.5041   161
13.5141   158
13.5241   153
13.5341   152
13.5441   151
13.5541   148
13.5641   148
13.5741   146
13.5841   142
13.5941   145
13.6041   151
13.6141   152
13.6241   156
13.6341   156
13.6441   143
13.6541   128
13.6641   127
13.6741   143
13.6841   155
13.6941   153
13.7041   142
13.7141   147
13.7241   154
13.7341   163
13.7441   159
13.7541   150
13.7641   154
13.7741   156
13.7841   152
13.7941   167
13.8041   178
13.8141   155
13.8241   155
13.8341   152
13.8441   161
13.8541   169
13.8641   153
13.8741   145
13.8841   154
13.8941   171
13.9041   171
13.9141   168
13.9241   161
13.9341   151
13.9441   158
13.9541   155
13.9641   155
13.9741   184
13.9841   182
13.9941   172
14.0041   180
14.0141   163
14.0241   160
14.0341   169
14.0441   160
14.0541   184
14.0641   208
14.0741   206
14.0841   197
14.0941   200
14.1041   209
14.1141   197
14.1241   188
14.1341   198
14.1441   211
14.1541   208
14.1641   191
14.1741   195
14.1841   209
14.1941   211
14.2041   205
14.2141   185
14.2241   188
14.2341   205
14.2441   207
14.2541   201
14.2641   184
14.2741   171
14.2841   176
14.2941   173
14.3041   170
14.3141   168
14.3241   165
14.3341   170
14.3441   173
14.3541   173
14.3641   171
14.3741   166
14.3841   177
14.3941   185
14.4041   182
14.4141   188
14.4241   166
14.4341   165
14.4441   189
14.4541   177
14.4641   174
14.4741   178
14.4841   188
14.4941   192
14.5041   177
14.5141   173
14.5241   175
14.5341   168
14.5441   173
14.5541   184
14.5641   188
14.5741   193
14.5841   196
14.5941   194
14.6041   188
14.6141   185
14.6241   195
14.6341   196
14.6441   195
14.6541   198
14.6641   193
14.6741   194
14.6841   173
14.6941   187
14.7041   198
14.7141   196
14.7241   193
14.7341   178
14.7441   187
14.7541   189
14.7641   187
14.7741   190
14.7841   191
14.7941   186
14.8041   190
14.8141   192
14.8241   195
14.8341   194
14.8441   198
14.8541   206
14.8641   209
14.8741   214
14.8841   210
14.8941   209
14.9041   219
14.9141   212
14.9241   205
14.9341   192
14.9441   206
14.9541   218
14.9641   197
14.9741   189
14.9841   207
14.9941   208
15.0041   210
15.0141   230
15.0241   218
15.0341   199
15.0441   193
15.0541   190
15.0641   195
15.0741   208
15.0841   207
15.0941   216
15.1041   196
15.1141   202
15.1241   211
15.1341   203
15.1441   213
15.1541   207
15.1641   198
15.1741   204
15.1841   198
15.1941   186
15.2041   193
15.2141   207
15.2241   201
15.2341   184
15.2441   220
15.2541   231
15.2641   214
15.2741   204
15.2841   217
15.2941   223
15.3041   230
15.3141   221
15.3241   197
15.3341   206
15.3441   227
15.3541   214
15.3641   215
15.3741   216
15.3841   218
15.3941   202
15.4041   200
15.4141   206
15.4241   226
15.4341   231
15.4441   228
15.4541   213
15.4641   206
15.4741   218
15.4841   222
15.4941   227
15.5041   219
15.5141   219
15.5241   229
15.5341   238
15.5441   230
15.5541   227
15.5641   239
15.5741   220
15.5841   216
15.5941   240
15.6041   242
15.6141   253
15.6241   268
15.6341   285
15.6441   285
15.6541   283
15.6641   282
15.6741   280
15.6841   281
15.6941   267
15.7041   281
15.7141   306
15.7241   301
15.7341   297
15.7441   289
15.7541   316
15.7641   313
15.7741   296
15.7841   286
15.7941   304
15.8041   298
15.8141   287
15.8241   293
15.8341   283
15.8441   266
15.8541   271
15.8641   267
15.8741   258
15.8841   268
15.8941   266
15.9041   254
15.9141   248
15.9241   243
15.9341   245
15.9441   250
15.9541   267
15.9641   237
15.9741   231
15.9841   243
15.9941   253
16.0041   241
16.0141   238
16.0241   243
16.0341   243
16.0441   257
16.0541   249
16.0641   242
16.0741   249
16.0841   243
16.0941   242
16.1041   232
16.1141   230
16.1241   255
16.1341   248
16.1441   253
16.1541   263
16.1641   252
16.1741   244
16.1841   252
16.1941   227
16.2041   253
16.2141   249
16.2241   227
16.2341   224
16.2441   234
16.2541   238
16.2641   244
16.2741   237
16.2841   253
16.2941   275
16.3041   265
16.3141   249
16.3241   249
16.3341   259
16.3441   261
16.3541   256
16.3641   272
16.3741   266
16.3841   272
16.3941   278
16.4041   277
16.4141   253
16.4241   254
16.4341   253
16.4441   267
16.4541   275
16.4641   264
16.4741   262
16.4841   281
16.4941   286
16.5041   278
16.5141   265
16.5241   276
16.5341   283
16.5441   272
16.5541   264
16.5641   258
16.5741   247
16.5841   247
16.5941   242
16.6041   239
16.6141   248
16.6241   272
16.6341   268
16.6441   262
16.6541   262
16.6641   260
16.6741   256
16.6841   276
16.6941   297
16.7041   266
16.7141   267
16.7241   244
16.7341   264
16.7441   275
16.7541   295
16.7641   284
16.7741   273
16.7841   259
16.7941   256
16.8041   270
16.8141   269
16.8241   258
16.8341   257
16.8441   268
16.8541   280
16.8641   271
16.8741   282
16.8841   286
16.8941   271
16.9041   293
16.9141   275
16.9241   255
16.9341   269
16.9441   267
16.9541   293
16.9641   324
16.9741   296
16.9841   278
16.9941   267
17.0041   283
17.0141   297
17.0241   283
17.0341   278
17.0441   283
17.0541   264
17.0641   280
17.0741   293
17.0841   278
17.0941   289
17.1041   301
17.1141   294
17.1241   297
17.1341   305
17.1441   288
17.1541   292
17.1641   284
17.1741   296
17.1841   288
17.1941   275
17.2041   270
17.2141   306
17.2241   302
17.2341   291
17.2441   280
17.2541   273
17.2641   302
17.2741   308
17.2841   302
17.2941   294
17.3041   284
17.3141   291
17.3241   308
17.3341   311
17.3441   308
17.3541   307
17.3641   315
17.3741   311
17.3841   309
17.3941   319
17.4041   303
17.4141   328
17.4241   308
17.4341   298
17.4441   323
17.4541   283
17.4641   268
17.4741   284
17.4841   277
17.4941   295
17.5041   304
17.5141   320
17.5241   310
17.5341   324
17.5441   318
17.5541   294
17.5641   326
17.5741   311
17.5841   291
17.5941   301
17.6041   310
17.6141   322
17.6241   318
17.6341   309
17.6441   308
17.6541   320
17.6641   322
17.6741   345
17.6841   332
17.6941   352
17.7041   326
17.7141   331
17.7241   334
17.7341   352
17.7441   332
17.7541   302
17.7641   290
17.7741   322
17.7841   327
17.7941   323
17.8041   309
17.8141   305
17.8241   295
17.8341   277
17.8441   294
17.8541   318
17.8641   313
17.8741   316
17.8841   302
17.8941   326
17.9041   299
17.9141   307
17.9241   315
17.9341   312
17.9441   334
17.9541   318
17.9641   323
17.9741   323
17.9841   316
17.9941   325
18.0041   328
18.0141   341
18.0241   309
18.0341   309
18.0441   308
18.0541   309
18.0641   334
18.0741   349
18.0841   329
18.0941   327
18.1041   344
18.1141   339
18.1241   357
18.1341   332
18.1441   322
18.1541   320
18.1641   335
18.1741   325
18.1841   327
18.1941   334
18.2041   342
18.2141   336
18.2241   341
18.2341   346
18.2441   321
18.2541   334
18.2641   326
18.2741   352
18.2841   344
18.2941   352
18.3041   336
18.3141   347
18.3241   348
18.3341   318
18.3441   351
18.3541   328
18.3641   363
18.3741   343
18.3841   356
18.3941   363
18.4041   347
18.4141   341
18.4241   381
18.4341   341
18.4441   340
18.4541   345
18.4641   370
18.4741   352
18.4841   326
18.4941   331
18.5041   336
18.5141   324
18.5241   350
18.5341   331
18.5441   348
18.5541   355
18.5641   362
18.5741   362
18.5841   347
18.5941   349
18.6041   316
18.6141   362
18.6241   348
18.6341   338
18.6441   339
18.6541   343
18.6641   350
18.6741   359
18.6841   356
18.6941   390
18.7041   366
18.7141   329
18.7241   350
18.7341   353
18.7441   371
18.7541   347
18.7641   362
18.7741   361
18.7841   373
18.7941   363
18.8041   352
18.8141   341
18.8241   342
18.8341   345
18.8441   345
18.8541   349
18.8641   373
18.8741   359
18.8841   355
18.8941   307
18.9041   336
18.9141   333
18.9241   352
18.9341   368
18.9441   333
18.9541   381
18.9641   371
18.9741   355
18.9841   340
18.9941   346
19.0041   333
19.0141   365
19.0241   365
19.0341   348
19.0441   350
19.0541   356
19.0641   349
19.0741   369
19.0841   379
19.0941   352
19.1041   364
19.1141   352
19.1241   362
19.1341   373
19.1441   382
19.1541   362
19.1641   359
19.1741   359
19.1841   368
19.1941   361
19.2041   363
19.2141   363
19.2241   370
19.2341   356
19.2441   374
19.2541   370
19.2641   360
19.2741   378
19.2841   374
19.2941   344
19.3041   352
19.3141   384
19.3241   357
19.3341   367
19.3441   340
19.3541   375
19.3641   378
19.3741   394
19.3841   367
19.3941   377
19.4041   345
19.4141   350
19.4241   347
19.4341   350
19.4441   355
19.4541   366
19.4641   368
19.4741   394
19.4841   388
19.4941   372
19.5041   349
19.5141   359
19.5241   348
19.5341   387
19.5441   389
19.5541   360
19.5641   352
19.5741   382
19.5841   392
19.5941   381
19.6041   339
19.6141   386
19.6241   354
19.6341   404
19.6441   407
19.6541   367
19.6641   359
19.6741   404
19.6841   398
19.6941   367
19.7041   361
19.7141   377
19.7241   386
19.7341   365
19.7441   377
19.7541   379
19.7641   380
19.7741   397
19.7841   374
19.7941   399
19.8041   385
19.8141   388
19.8241   385
19.8341   374
19.8441   378
19.8541   373
19.8641   377
19.8741   393
19.8841   390
19.8941   384
19.9041   408
19.9141   394
19.9241   380
19.9341   393
19.9441   390
19.9541   383
19.9641   380
19.9741   396
19.9841   376
19.9941   339
20.0041   388
20.0141   404
20.0241   378
20.0341   386
20.0441   356
20.0541   379
20.0641   386
20.0741   365
20.0841   355
20.0941   364
20.1041   418
20.1141   373
20.1241   401
20.1341   405
20.1441   380
20.1541   371
20.1641   376
20.1741   380
20.1841   375
20.1941   375
20.2041   389
20.2141   390
20.2241   399
20.2341   382
20.2441   375
20.2541   377
20.2641   394
20.2741   394
20.2841   374
20.2941   395
20.3041   386
20.3141   369
20.3241   362
20.3341   348
20.3441   390
20.3541   363
20.3641   368
20.3741   388
20.3841   364
20.3941   355
20.4041   393
20.4141   367
20.4241   369
20.4341   402
20.4441   374
20.4541   344
20.4641   406
20.4741   374
20.4841   380
20.4941   394
20.5041   409
20.5141   380
20.5241   386
20.5341   368
20.5441   347
20.5541   396
20.5641   388
20.5741   380
20.5841   381
20.5941   389
20.6041   372
20.6141   402
20.6241   356
20.6341   407
20.6441   386
20.6541   374
20.6641   429
20.6741   396
20.6841   395
20.6941   387
20.7041   361
20.7141   355
20.7241   386
20.7341   392
20.7441   378
20.7541   372
20.7641   384
20.7741   403
20.7841   396
20.7941   397
20.8041   401
20.8141   428
20.8241   397
20.8341   411
20.8441   406
20.8541   399
20.8641   436
20.8741   412
20.8841   430
20.8941   417
20.9041   434
20.9141   452
20.9241   471
20.9341   471
20.9441   474
20.9541   481
20.9641   482
20.9741   497
20.9841   497
20.9941   503
21.0041   534
21.0141   565
21.0241   507
21.0341   514
21.0441   575
21.0541   532
21.0641   543
21.0741   506
21.0841   562
21.0941   563
21.1041   626
21.1141   621
21.1241   580
21.1341   547
21.1441   603
21.1541   555
21.1641   618
21.1741   565
21.1841   577
21.1941   554
21.2041   539
21.2141   579
21.2241   543
21.2341   542
21.2441   534
21.2541   523
21.2641   492
21.2741   493
21.2841   468
21.2941   489
21.3041   459
21.3141   455
21.3241   471
21.3341   460
21.3441   429
21.3541   424
21.3641   406
21.3741   389
21.3841   396
21.3941   400
21.4041   372
21.4141   417
21.4241   408
21.4341   384
21.4441   410
21.4541   399
21.4641   406
21.4741   374
21.4841   402
21.4941   395
21.5041   373
21.5141   379
21.5241   412
21.5341   375
21.5441   420
21.5541   388
21.5641   393
21.5741   384
21.5841   406
21.5941   402
21.6041   409
21.6141   400
21.6241   392
21.6341   401
21.6441   376
21.6541   369
21.6641   405
21.6741   374
21.6841   400
21.6941   434
21.7041   371
21.7141   393
21.7241   381
21.7341   376
21.7441   376
21.7541   360
21.7641   410
21.7741   409
21.7841   398
21.7941   360
21.8041   406
21.8141   406
21.8241   393
21.8341   371
21.8441   392
21.8541   382
21.8641   390
21.8741   381
21.8841   392
21.8941   399
21.9041   388
21.9141   397
21.9241   393
21.9341   392
21.9441   384
21.9541   381
21.9641   399
21.9741   387
21.9841   390
21.9941   373
22.0041   382
22.0141   379
22.0241   380
22.0341   377
22.0441   378
22.0541   355
22.0641   370
22.0741   407
22.0841   358
22.0941   383
22.1041   368
22.1141   404
22.1241   409
22.1341   425
22.1441   373
22.1541   401
22.1641   407
22.1741   402
22.1841   368
22.1941   414
22.2041   361
22.2141   364
22.2241   390
22.2341   392
22.2441   402
22.2541   409
22.2641   384
22.2741   401
22.2841   382
22.2941   388
22.3041   429
22.3141   370
22.3241   392
22.3341   357
22.3441   376
22.3541   390
22.3641   383
22.3741   374
22.3841   422
22.3941   399
22.4041   392
22.4141   373
22.4241   355
22.4341   403
22.4441   405
22.4541   349
22.4641   384
22.4741   421
22.4841   382
22.4941   370
22.5041   388
22.5141   359
22.5241   380
22.5341   394
22.5441   364
22.5541   398
22.5641   361
22.5741   376
22.5841   366
22.5941   351
22.6041   409
22.6141   393
22.6241   390
22.6341   353
22.6441   392
22.6541   393
22.6641   399
22.6741   363
22.6841   396
22.6941   380
22.7041   388
22.7141   383
22.7241   369
22.7341   395
22.7441   381
22.7541   380
22.7641   369
22.7741   365
22.7841   362
22.7941   386
22.8041   376
22.8141   416
22.8241   372
22.8341   400
22.8441   375
22.8541   351
22.8641   412
22.8741   370
22.8841   364
22.8941   379
22.9041   422
22.9141   367
22.9241   350
22.9341   373
22.9441   404
22.9541   378
22.9641   382
22.9741   358
22.9841   380
22.9941   358
23.0041   373
23.0141   359
23.0241   383
23.0341   356
23.0441   404
23.0541   380
23.0641   394
23.0741   381
23.0841   366
23.0941   352
23.1041   374
23.1141   356
23.1241   393
23.1341   377
23.1441   357
23.1541   361
23.1641   395
23.1741   376
23.1841   377
23.1941   400
23.2041   327
23.2141   404
23.2241   355
23.2341   415
23.2441   382
23.2541   349
23.2641   406
23.2741   357
23.2841   355
23.2941   387
23.3041   393
23.3141   374
23.3241   362
23.3341   385
23.3441   335
23.3541   374
23.3641   344
23.3741   365
23.3841   359
23.3941   363
23.4041   389
23.4141   390
23.4241   377
23.4341   354
23.4441   395
23.4541   339
23.4641   363
23.4741   364
23.4841   370
23.4941   318
23.5041   366
23.5141   368
23.5241   372
23.5341   354
23.5441   376
23.5541   379
23.5641   372
23.5741   368
23.5841   377
23.5941   362
23.6041   410
23.6141   361
23.6241   389
23.6341   395
23.6441   374
23.6541   376
23.6641   386
23.6741   364
23.6841   398
23.6941   405
23.7041   390
23.7141   352
23.7241   390
23.7341   370
23.7441   408
23.7541   390
23.7641   405
23.7741   399
23.7841   375
23.7941   390
23.8041   427
23.8141   394
23.8241   382
23.8341   379
23.8441   375
23.8541   383
23.8641   384
23.8741   374
23.8841   413
23.8941   383
23.9041   382
23.9141   371
23.9241   365
23.9341   402
23.9441   377
23.9541   364
23.9641   368
23.9741   359
23.9841   395
23.9941   374
24.0041   345
24.0141   366
24.0241   337
24.0341   391
24.0441   367
24.0541   367
24.0641   367
24.0741   376
24.0841   312
24.0941   350
24.1041   326
24.1141   329
24.1241   342
24.1341   365
24.1441   343
24.1541   362
24.1641   338
24.1741   392
24.1841   332
24.1941   359
24.2041   356
24.2141   352
24.2241   324
24.2341   367
24.2441   354
24.2541   326
24.2641   320
24.2741   334
24.2841   341
24.2941   392
24.3041   353
24.3141   353
24.3241   344
24.3341   331
24.3441   356
24.3541   355
24.3641   361
24.3741   323
24.3841   351
24.3941   352
24.4041   369
24.4141   327
24.4241   349
24.4341   322
24.4441   365
24.4541   320
24.4641   313
24.4741   345
24.4841   326
24.4941   332
24.5041   336
24.5141   345
24.5241   340
24.5341   348
24.5441   373
24.5541   319
24.5641   345
24.5741   356
24.5841   366
24.5941   374
24.6041   347
24.6141   341
24.6241   336
24.6341   335
24.6441   355
24.6541   319
24.6641   339
24.6741   355
24.6841   346
24.6941   347
24.7041   344
24.7141   354
24.7241   362
24.7341   331
24.7441   322
24.7541   313
24.7641   329
24.7741   343
24.7841   332
24.7941   360
24.8041   343
24.8141   348
24.8241   312
24.8341   324
24.8441   324
24.8541   352
24.8641   321
24.8741   345
24.8841   362
24.8941   330
24.9041   357
24.9141   337
24.9241   315
24.9341   343
24.9441   340
24.9541   332
24.9641   354
24.9741   323
24.9841   312
24.9941   335
25.0041   368
25.0141   325
25.0241   313
25.0341   332
25.0441   314
25.0541   326
25.0641   376
25.0741   349
25.0841   314
25.0941   337
25.1041   334
25.1141   339
25.1241   312
25.1341   342
25.1441   351
25.1541   306
25.1641   343
25.1741   316
25.1841   341
25.1941   378
25.2041   343
25.2141   360
25.2241   324
25.2341   325
25.2441   365
25.2541   348
25.2641   362
25.2741   326
25.2841   345
25.2941   337
25.3041   356
25.3141   346
25.3241   323
25.3341   308
25.3441   314
25.3541   321
25.3641   353
25.3741   320
25.3841   307
25.3941   336
25.4041   328
25.4141   326
25.4241   346
25.4341   325
25.4441   296
25.4541   317
25.4641   338
25.4741   311
25.4841   336
25.4941   340
25.5041   331
25.5141   310
25.5241   294
25.5341   305
25.5441   319
25.5541   324
25.5641   340
25.5741   302
25.5841   308
25.5941   285
25.6041   313
25.6141   321
25.6241   328
25.6341   314
25.6441   314
25.6541   349
25.6641   325
25.6741   332
25.6841   328
25.6941   297
25.7041   314
25.7141   336
25.7241   335
25.7341   319
25.7441   290
25.7541   327
25.7641   320
25.7741   298
25.7841   329
25.7941   311
25.8041   299
25.8141   309
25.8241   329
25.8341   298
25.8441   324
25.8541   306
25.8641   292
25.8741   312
25.8841   300
25.8941   299
25.9041   276
25.9141   282
25.9241   299
25.9341   292
25.9441   322
25.9541   292
25.9641   317
25.9741   297
25.9841   286
25.9941   328
26.0041   341
26.0141   292
26.0241   351
26.0341   293
26.0441   291
26.0541   292
26.0641   323
26.0741   313
26.0841   320
26.0941   306
26.1041   317
26.1141   283
26.1241   307
26.1341   305
26.1441   318
26.1541   312
26.1641   292
26.1741   312
26.1841   287
26.1941   325
26.2041   303
26.2141   283
26.2241   332
26.2341   309
26.2441   300
26.2541   322
26.2641   288
26.2741   272
26.2841   277
26.2941   284
26.3041   322
26.3141   302
26.3241   294
26.3341   284
26.3441   300
26.3541   308
26.3641   292
26.3741   307
26.3841   307
26.3941   313
26.4041   298
26.4141   282
26.4241   299
26.4341   305
26.4441   290
26.4541   301
26.4641   289
26.4741   291
26.4841   257
26.4941   290
26.5041   307
26.5141   289
26.5241   252
26.5341   272
26.5441   292
26.5541   283
26.5641   279
26.5741   301
26.5841   308
26.5941   293
26.6041   275
26.6141   285
26.6241   278
26.6341   288
26.6441   285
26.6541   289
26.6641   271
26.6741   271
26.6841   274
26.6941   294
26.7041   268
26.7141   285
26.7241   274
26.7341   304
26.7441   281
26.7541   264
26.7641   301
26.7741   284
26.7841   311
26.7941   289
26.8041   251
26.8141   262
26.8241   286
26.8341   312
26.8441   260
26.8541   283
26.8641   277
26.8741   262
26.8841   272
26.8941   285
26.9041   257
26.9141   269
26.9241   286
26.9341   295
26.9441   270
26.9541   258
26.9641   266
26.9741   259
26.9841   306
26.9941   283
27.0041   291
27.0141   276
27.0241   249
27.0341   294
27.0441   255
27.0541   265
27.0641   294
27.0741   287
27.0841   273
27.0941   295
27.1041   289
27.1141   276
27.1241   270
27.1341   272
27.1441   274
27.1541   268
27.1641   251
27.1741   257
27.1841   290
27.1941   264
27.2041   274
27.2141   287
27.2241   257
27.2341   261
27.2441   250
27.2541   260
27.2641   263
27.2741   261
27.2841   255
27.2941   273
27.3041   270
27.3141   293
27.3241   282
27.3341   271
27.3441   285
27.3541   275
27.3641   233
27.3741   275
27.3841   259
27.3941   265
27.4041   270
27.4141   268
27.4241   247
27.4341   246
27.4441   261
27.4541   265
27.4641   248
27.4741   241
27.4841   259
27.4941   254
27.5041   274
27.5141   262
27.5241   268
27.5341   251
27.5441   280
27.5541   256
27.5641   266
27.5741   238
27.5841   261
27.5941   255
27.6041   254
27.6141   273
27.6241   277
27.6341   266
27.6441   266
27.6541   279
27.6641   260
27.6741   264
27.6841   257
27.6941   261
27.7041   245
27.7141   256
27.7241   249
27.7341   251
27.7441   252
27.7541   274
27.7641   271
27.7741   262
27.7841   256
27.7941   259
27.8041   247
27.8141   271
27.8241   274
27.8341   260
27.8441   240
27.8541   261
27.8641   245
27.8741   256
27.8841   252
27.8941   261
27.9041   236
27.9141   252
27.9241   255
27.9341   249
27.9441   244
27.9541   227
27.9641   248
27.9741   242
27.9841   272
27.9941   231
28.0041   247
28.0141   229
28.0241   247
28.0341   247
28.0441   255
28.0541   276
28.0641   237
28.0741   228
28.0841   237
28.0941   241
28.1041   252
28.1141   264
28.1241   237
28.1341   243
28.1441   248
28.1541   235
28.1641   260
28.1741   237
28.1841   256
28.1941   217
28.2041   257
28.2141   296
28.2241   235
28.2341   258
28.2441   233
28.2541   254
28.2641   238
28.2741   230
28.2841   243
28.2941   244
28.3041   237
28.3141   209
28.3241   234
28.3341   255
28.3441   250
28.3541   200
28.3641   249
28.3741   232
28.3841   241
28.3941   218
28.4041   234
28.4141   228
28.4241   225
28.4341   257
28.4441   208
28.4541   201
28.4641   233
28.4741   233
28.4841   228
28.4941   238
28.5041   247
28.5141   224
28.5241   238
28.5341   232
28.5441   223
28.5541   242
28.5641   220
28.5741   252
28.5841   203
28.5941   220
28.6041   220
28.6141   222
28.6241   227
28.6341   229
28.6441   226
28.6541   201
28.6641   235
28.6741   234
28.6841   228
28.6941   234
28.7041   230
28.7141   215
28.7241   240
28.7341   212
28.7441   210
28.7541   198
28.7641   230
28.7741   232
28.7841   236
28.7941   230
28.8041   234
28.8141   198
28.8241   191
28.8341   228
28.8441   210
28.8541   209
28.8641   193
28.8741   224
28.8841   230
28.8941   215
28.9041   230
28.9141   188
28.9241   212
28.9341   218
28.9441   191
28.9541   213
28.9641   228
28.9741   216
28.9841   224
28.9941   242
29.0041   220
29.0141   207
29.0241   230
29.0341   230
29.0441   198
29.0541   206
29.0641   207
29.0741   229
29.0841   216
29.0941   209
29.1041   201
29.1141   206
29.1241   221
29.1341   237
29.1441   238
29.1541   205
29.1641   210
29.1741   189
29.1841   185
29.1941   211
29.2041   195
29.2141   217
29.2241   217
29.2341   219
29.2441   188
29.2541   195
29.2641   222
29.2741   207
29.2841   214
29.2941   211
29.3041   197
29.3141   195
29.3241   220
29.3341   170
29.3441   192
29.3541   213
29.3641   231
29.3741   220
29.3841   177
29.3941   221
29.4041   191
29.4141   200
29.4241   177
29.4341   213
29.4441   202
29.4541   184
29.4641   208
29.4741   191
29.4841   198
29.4941   201
29.5041   179
29.5141   173
29.5241   209
29.5341   198
29.5441   196
29.5541   199
29.5641   213
29.5741   183
29.5841   214
29.5941   188
29.6041   193
29.6141   218
29.6241   206
29.6341   213
29.6441   192
29.6541   195
29.6641   191
29.6741   205
29.6841   224
29.6941   207
29.7041   214
29.7141   198
29.7241   222
29.7341   183
29.7441   176
29.7541   190
29.7641   200
29.7741   193
29.7841   215
29.7941   204
29.8041   176
29.8141   177
29.8241   166
29.8341   191
29.8441   204
29.8541   209
29.8641   195
29.8741   172
29.8841   178
29.8941   199
29.9041   198
29.9141   192
29.9241   181
29.9341   192
29.9441   205
29.9541   181
29.9641   196
29.9741   179
29.9841   177
29.9941   189
30.0041   199
30.0141   168
30.0241   168
30.0341   183
30.0441   190
30.0541   188
30.0641   208
30.0741   202
30.0841   190
30.0941   190
30.1041   206
30.1141   205
30.1241   203
30.1341   173
30.1441   182
30.1541   184
30.1641   183
30.1741   189
30.1841   167
30.1941   179
30.2041   169
30.2141   168
30.2241   194
30.2341   188
30.2441   192
30.2541   178
30.2641   184
30.2741   174
30.2841   177
30.2941   173
30.3041   198
30.3141   182
30.3241   169
30.3341   173
30.3441   159
30.3541   168
30.3641   186
30.3741   178
30.3841   179
30.3941   170
30.4041   187
30.4141   210
30.4241   204
30.4341   177
30.4441   192
30.4541   174
30.4641   157
30.4741   177
30.4841   172
30.4941   177
30.5041   173
30.5141   134
30.5241   181
30.5341   176
30.5441   180
30.5541   163
30.5641   193
30.5741   174
30.5841   199
30.5941   175
30.6041   172
30.6141   171
30.6241   156
30.6341   186
30.6441   150
30.6541   162
30.6641   171
30.6741   182
30.6841   171
30.6941   158
30.7041   157
30.7141   160
30.7241   158
30.7341   150
30.7441   160
30.7541   163
30.7641   167
30.7741   181
30.7841   158
30.7941   155
30.8041   171
30.8141   174
30.8241   171
30.8341   179
30.8441   167
30.8541   178
30.8641   165
30.8741   167
30.8841   153
30.8941   178
30.9041   148
30.9141   161
30.9241   177
30.9341   162
30.9441   169
30.9541   156
30.9641   159
30.9741   152
30.9841   156
30.9941   158
31.0041   150
31.0141   165
31.0241   163
31.0341   163
31.0441   151
31.0541   157
31.0641   167
31.0741   156
31.0841   163
31.0941   181
31.1041   152
31.1141   164
31.1241   178
31.1341   186
31.1441   145
31.1541   171
31.1641   170
31.1741   136
31.1841   153
31.1941   174
31.2041   165
31.2141   147
31.2241   157
31.2341   139
31.2441   157
31.2541   151
31.2641   156
31.2741   134
31.2841   147
31.2941   153
31.3041   153
31.3141   152
31.3241   139
31.3341   166
31.3441   134
31.3541   140
31.3641   143
31.3741   158
31.3841   145
31.3941   131
31.4041   150
31.4141   145
31.4241   157
31.4341   143
31.4441   145
31.4541   156
31.4641   153
31.4741   153
31.4841   141
31.4941   158
31.5041   156
31.5141   160
31.5241   147
31.5341   166
31.5441   124
31.5541   131
31.5641   135
31.5741   152
31.5841   142
31.5941   138
31.6041   143
31.6141   144
31.6241   145
31.6341   133
31.6441   153
31.6541   136
31.6641   152
31.6741   151
31.6841   160
31.6941   142
31.7041   126
31.7141   150
31.7241   149
31.7341   149
31.7441   159
31.7541   151
31.7641   156
31.7741   160
31.7841   130
31.7941   146
31.8041   149
31.8141   142
31.8241   134
31.8341   151
31.8441   146
31.8541   139
31.8641   157
31.8741   154
31.8841   146
31.8941   146
31.9041   123
31.9141   144
31.9241   159
31.9341   155
31.9441   135
31.9541   139
31.9641   133
31.9741   144
31.9841   150
31.9941   139
32.0041   136
32.0141   161
32.0241   141
32.0341   146
32.0441   140
32.0541   127
32.0641   150
32.0741   153
32.0841   146
32.0941   136
32.1041   128
32.1141   157
32.1241   147
32.1341   150
32.1441   159
32.1541   148
32.1641   142
32.1741   139
32.1841   114
32.1941   133
32.2041   138
32.2141   120
32.2241   140
32.2341   153
32.2441   150
32.2541   129
32.2641   126
32.2741   129
32.2841   159
32.2941   154
32.3041   148
32.3141   149
32.3241   127
32.3341   155
32.3441   135
32.3541   100
32.3641   114
32.3741   144
32.3841   135
32.3941   130
32.4041   144
32.4141   130
32.4241   135
32.4341   129
32.4441   134
32.4541   123
32.4641   134
32.4741   139
32.4841   112
32.4941   128
32.5041   110
32.5141   117
32.5241   129
32.5341   113
32.5441   139
32.5541   129
32.5641   129
32.5741   122
32.5841   113
32.5941   122
32.6041   131
32.6141   141
32.6241   119
32.6341   124
32.6441   131
32.6541   112
32.6641   142
32.6741   124
32.6841   122
32.6941   124
32.7041   132
32.7141   128
32.7241   109
32.7341   112
32.7441   130
32.7541   106
32.7641   122
32.7741   127
32.7841   108
32.7941   137
32.8041   114
32.8141   124
32.8241   102
32.8341   122
32.8441   128
32.8541   118
32.8641   113
32.8741   119
32.8841   128
32.8941   110
32.9041   128
32.9141   121
32.9241   130
32.9341   122
32.9441   102
32.9541   107
32.9641    93
32.9741   120
32.9841   117
32.9941   139
33.0041   135
33.0141   116
33.0241   116
33.0341   125
33.0441   124
33.0541   123
33.0641   124
33.0741   118
33.0841   114
33.0941   117
33.1041   125
33.1141    97
33.1241   117
33.1341   109
33.1441   115
33.1541   114
33.1641   123
33.1741   108
33.1841   115
33.1941   109
33.2041   117
33.2141   123
33.2241   114
33.2341   105
33.2441   105
33.2541   116
33.2641   106
33.2741   117
33.2841   110
33.2941   106
33.3041   111
33.3141    98
33.3241   110
33.3341    96
33.3441   106
33.3541    88
33.3641   110
33.3741   116
33.3841   127
33.3941   123
33.4041   114
33.4141   102
33.4241   114
33.4341   111
33.4441   101
33.4541   117
33.4641   114
33.4741   120
33.4841   101
33.4941   111
33.5041   101
33.5141   110
33.5241   109
33.5341   103
33.5441   106
33.5541   107
33.5641   113
33.5741   100
33.5841   101
33.5941   111
33.6041    97
33.6141    83
33.6241   103
33.6341   103
33.6441   112
33.6541   118
33.6641    86
33.6741   122
33.6841   134
33.6941    86
33.7041   104
33.7141   112
33.7241    85
33.7341    95
33.7441   107
33.7541    90
33.7641   108
33.7741    96
33.7841    94
33.7941   110
33.8041    96
33.8141    96
33.8241    99
33.8341   112
33.8441   108
33.8541   118
33.8641   113
33.8741   108
33.8841    98
33.8941    96
33.9041   107
33.9141    92
33.9241    92
33.9341    95
33.9441   114
33.9541   106
33.9641    94
33.9741   105
33.9841    83
33.9941   113
34.0041    91
34.0141    91
34.0241    95
34.0341    98
34.0441    98
34.0541   114
34.0641   100
34.0741   103
34.0841   123
34.0941    91
34.1041    92
34.1141    87
34.1241    90
34.1341   100
34.1441   107
34.1541   104
34.1641    79
34.1741    98
34.1841   104
34.1941   104
34.2041    85
34.2141    79
34.2241    89
34.2341   109
34.2441    94
34.2541    81
34.2641    94
34.2741    89
34.2841    85
34.2941    97
34.3041    87
34.3141    95
34.3241   105
34.3341    87
34.3441    86
34.3541    76
34.3641    88
34.3741    86
34.3841    82
34.3941   101
34.4041   100
34.4141    76
34.4241    89
34.4341    98
34.4441    91
34.4541    68
34.4641    99
34.4741    87
34.4841    89
34.4941    94
34.5041    99
34.5141   100
34.5241    83
34.5341    86
34.5441    85
34.5541    82
34.5641    94
34.5741    85
34.5841    68
34.5941    96
34.6041    76
34.6141    87
34.6241    96
34.6341    98
34.6441    82
34.6541    72
34.6641    69
34.6741    91
34.6841   104
34.6941    86
34.7041    87
34.7141    94
34.7241    82
34.7341    70
34.7441    72
34.7541    93
34.7641    86
34.7741    80
34.7841    85
34.7941    75
34.8041    80
34.8141   101
34.8241    74
34.8341    88
34.8441    93
34.8541    88
34.8641    76
34.8741    87
34.8841    85
34.8941    78
34.9041    91
34.9141    71
34.9241    89
34.9341    80
34.9441    76
34.9541    78
34.9641    88
34.9741    71
34.9841    60
34.9941    91
35.0041    92
35.0141    83
35.0241    78
35.0341    77
35.0441    86
35.0541    83
35.0641    81
35.0741    74
35.0841    85
35.0941    69
35.1041    68
35.1141    74
35.1241    95
35.1341    64
35.1441    91
35.1541    81
35.1641    80
35.1741    71
35.1841    82
35.1941    78
35.2041    87
35.2141    71
35.2241    70
35.2341    68
35.2441    77
35.2541    83
35.2641    68
35.2741    92
35.2841    66
35.2941    77
35.3041    69
35.3141    66
35.3241    80
35.3341    74
35.3441    69
35.3541    76
35.3641    91
35.3741    72
35.3841    76
35.3941    80
35.4041    79
35.4141    85
35.4241    70
35.4341    66
35.4441    79
35.4541    79
35.4641    79
35.4741    56
35.4841    63
35.4941    63
35.5041    70
35.5141    91
35.5241    68
35.5341    63
35.5441    74
35.5541    85
35.5641    66
35.5741    70
35.5841    62
35.5941    77
35.6041    80
35.6141    69
35.6241    74
35.6341    77
35.6441    59
35.6541    69
35.6641    70
35.6741    68
35.6841    61
35.6941    65
35.7041    67
35.7141    58
35.7241    64
35.7341    59
35.7441    68
35.7541    62
35.7641    68
35.7741    58
35.7841    73
35.7941    75
35.8041    80
35.8141    71
35.8241    74
35.8341    57
35.8441    67
35.8541    76
35.8641    64
35.8741    65
35.8841    65
35.8941    70
35.9041    64
35.9141    62
35.9241    57
35.9341    65
35.9441    72
35.9541    53
35.9641    57
35.9741    67
35.9841    70
35.9941    74
36.0041    57
36.0141    61
36.0241    55
36.0341    72
36.0441    73
36.0541    70
36.0641    62
36.0741    55
36.0841    53
36.0941    72
36.1041    63
36.1141    59
36.1241    79
36.1341    60
36.1441    77
36.1541    54
36.1641    53
36.1741    67
36.1841    57
36.1941    70
36.2041    67
36.2141    62
36.2241    53
36.2341    59
36.2441    67
36.2541    50
36.2641    56
36.2741    60
36.2841    50
36.2941    67
36.3041    72
36.3141    69
36.3241    70
36.3341    75
36.3441    59
36.3541    54
36.3641    43
36.3741    59
36.3841    59
36.3941    68
36.4041    58
36.4141    60
36.4241    65
36.4341    60
36.4441    67
36.4541    68
36.4641    51
36.4741    44
36.4841    55
36.4941    71
36.5041    70
36.5141    72
36.5241    56
36.5341    56
36.5441    54
36.5541    54
36.5641    60
36.5741    76
36.5841    48
36.5941    60
36.6041    50
36.6141    50
36.6241    54
36.6341    56
36.6441    64
36.6541    52
36.6641    57
36.6741    56
36.6841    61
36.6941    45
36.7041    49
36.7141    59
36.7241    51
36.7341    52
36.7441    56
36.7541    57
36.7641    43
36.7741    52
36.7841    60
36.7941    53
36.8041    57
36.8141    50
36.8241    61
36.8341    54
36.8441    56
36.8541    50
36.8641    55
36.8741    52
36.8841    39
36.8941    73
36.9041    56
36.9141    54
36.9241    59
36.9341    49
36.9441    63
36.9541    58
36.9641    46
36.9741    50
36.9841    59
36.9941    46
37.0041    54
37.0141    50
37.0241    48
37.0341    49
37.0441    43
37.0541    48
37.0641    43
37.0741    54
37.0841    45
37.0941    49
37.1041    55
37.1141    50
37.1241    68
37.1341    59
37.1441    53
37.1541    45
37.1641    45
37.1741    51
37.1841    49
37.1941    58
37.2041    48
37.2141    50
37.2241    57
37.2341    42
37.2441    59
37.2541    63
37.2641    45
37.2741    57
37.2841    50
37.2941    48
37.3041    43
37.3141    51
37.3241    47
37.3341    48
37.3441    48
37.3541    30
37.3641    41
37.3741    50
37.3841    47
37.3941    47
37.4041    50
37.4141    52
37.4241    55
37.4341    49
37.4441    39
37.4541    49
37.4641    43
37.4741    59
37.4841    38
37.4941    49
37.5041    36
37.5141    40
37.5241    39
37.5341    44
37.5441    52
37.5541    46
37.5641    52
37.5741    55
37.5841    50
37.5941    47
37.6041    44
37.6141    48
37.6241    40
37.6341    49
37.6441    42
37.6541    46
37.6641    40
37.6741    41
37.6841    37
37.6941    42
37.7041    47
37.7141    43
37.7241    46
37.7341    68
37.7441    37
37.7541    37
37.7641    41
37.7741    32
37.7841    39
37.7941    47
37.8041    38
37.8141    46
37.8241    49
37.8341    32
37.8441    51
37.8541    41
37.8641    48
37.8741    44
37.8841    32
37.8941    38
37.9041    41
37.9141    31
37.9241    39
37.9341    39
37.9441    42
37.9541    43
37.9641    46
37.9741    42
37.9841    51
37.9941    37
38.0041    37
38.0141    41
38.0241    39
38.0341    45
38.0441    39
38.0541    32
38.0641    27
38.0741    41
38.0841    44
38.0941    39
38.1041    44
38.1141    29
38.1241    36
38.1341    41
38.1441    31
38.1541    43
38.1641    41
38.1741    48
38.1841    46
38.1941    34
38.2041    37
38.2141    36
38.2241    29
38.2341    34
38.2441    34
38.2541    36
38.2641    38
38.2741    30
38.2841    34
38.2941    36
38.3041    36
38.3141    30
38.3241    28
38.3341    31
38.3441    35
38.3541    47
38.3641    38
38.3741    35
38.3841    42
38.3941    35
38.4041    44
38.4141    47
38.4241    40
38.4341    34
38.4441    37
38.4541    42
38.4641    34
38.4741    48
38.4841    34
38.4941    40
38.5041    25
38.5141    36
38.5241    32
38.5341    38
38.5441    40
38.5541    42
38.5641    34
38.5741    39
38.5841    35
38.5941    28
38.6041    28
38.6141    34
38.6241    30
38.6341    32
38.6441    31
38.6541    36
38.6641    30
38.6741    26
38.6841    34
38.6941    36
38.7041    34
38.7141    36
38.7241    36
38.7341    30
38.7441    27
38.7541    36
38.7641    38
38.7741    33
38.7841    29
38.7941    34
38.8041    30
38.8141    27
38.8241    28
38.8341    35
38.8441    27
38.8541    33
38.8641    24
38.8741    25
38.8841    39
38.8941    35
38.9041    30
38.9141    35
38.9241    36
38.9341    36
38.9441    21
38.9541    21
38.9641    23
38.9741    24
38.9841    27
38.9941    36
39.0041    20
39.0141    27
39.0241    35
39.0341    30
39.0441    12
39.0541    26
39.0641    26
39.0741    30
39.0841    29
39.0941    37
39.1041    28
39.1141    27
39.1241    30
39.1341    25
39.1441    31
39.1541    27
39.1641    26
39.1741    28
39.1841    28
39.1941    30
39.2041    26
39.2141    29
39.2241    26
39.2341    20
39.2441    23
39.2541    32
39.2641    34
39.2741    21
39.2841    34
39.2941    35
39.3041    36
39.3141    20
39.3241    37
39.3341    32
39.3441    32
39.3541    34
39.3641    20
39.3741    33
39.3841    29
39.3941    25
39.4041    20
39.4141    27
39.4241    29
39.4341    22
39.4441    31
39.4541    18
39.4641    25
39.4741    23
39.4841    23
39.4941    24
39.5041    24
39.5141    30
39.5241    20
39.5341    23
39.5441    24
39.5541    19
39.5641    22
39.5741    23
39.5841    18
39.5941    24
39.6041    23
39.6141    30
39.6241    24
39.6341    20
39.6441    24
39.6541    27
39.6641    19
39.6741    18
39.6841    33
39.6941    34
39.7041    21
39.7141    17
39.7241    22
39.7341    26
39.7441    25
39.7541    23
39.7641    26
39.7741    27
39.7841    21
39.7941    25
39.8041    20
39.8141    14
39.8241    29
39.8341    17
39.8441    16
39.8541    22
39.8641    27
39.8741    25
39.8841    25
39.8941    14
39.9041    21
39.9141    26
39.9241    31
39.9341    22
39.9441    23
39.9541    18
39.9641    17
39.9741    22
39.9841    27
