Bruker Nano GmbH Berlin, Germany
Esprit 1.9

Date: 5/14/2021 3:45:40 PM
Real time: 15662
Life time: 14544
Pulse density: 105004


Detector type: XFlash 430
Window type: Custom type
Detector thickness: 0.45
Si dead layer:0.029

Calibration, lin.: 10
Calibration, abs.: -955.9
Mn FWHM: 137.05
Fano factor: 0.121
Channels: 4095

Energy Counts
-0.9559     0
-0.9459     0
-0.9359     0
-0.9259     0
-0.9159     0
-0.9059     0
-0.8959     0
-0.8859     0
-0.8759     0
-0.8659     0
-0.8559     0
-0.8459     0
-0.8359     0
-0.8259     0
-0.8159     0
-0.8059     0
-0.7959     0
-0.7859     0
-0.7759     0
-0.7659     0
-0.7559     0
-0.7459     0
-0.7359     0
-0.7259     0
-0.7159     0
-0.7059     0
-0.6959     0
-0.6859     0
-0.6759     0
-0.6659     0
-0.6559     0
-0.6459     0
-0.6359     0
-0.6259     0
-0.6159     0
-0.6059     0
-0.5959     0
-0.5859     0
-0.5759     0
-0.5659     0
-0.5559     0
-0.5459     0
-0.5359     0
-0.5259     0
-0.5159     0
-0.5059     0
-0.4959     0
-0.4859     0
-0.4759     0
-0.4659     0
-0.4559     0
-0.4459     0
-0.4359     0
-0.4259     0
-0.4159     0
-0.4059     0
-0.3959     0
-0.3859     0
-0.3759     0
-0.3659     0
-0.3559     0
-0.3459     0
-0.3359     0
-0.3259     0
-0.3159     0
-0.3059     0
-0.2959     0
-0.2859     0
-0.2759     0
-0.2659     0
-0.2559     0
-0.2459     0
-0.2359     0
-0.2259     0
-0.2159     0
-0.2059     0
-0.1959     0
-0.1859     0
-0.1759     0
-0.1659     0
-0.1559     0
-0.1459     0
-0.1359     0
-0.1259     1
-0.1159     3
-0.1059    14
-0.0959    40
-0.0859   155
-0.0759   524
-0.0659  1687
-0.0559  4247
-0.0459  9223
-0.0359 17307
-0.0259 27502
-0.0159 38185
-0.0059 44700
 0.0041 44894
 0.0141 38543
 0.0241 28602
 0.0341 17876
 0.0441  9786
 0.0541  4463
 0.0641  1862
 0.0741   625
 0.0841   189
 0.0941    52
 0.1041    13
 0.1141     9
 0.1241    12
 0.1341     8
 0.1441     8
 0.1541     4
 0.1641     3
 0.1741     3
 0.1841   142
 0.1941   282
 0.2041   261
 0.2141   254
 0.2241   247
 0.2341   247
 0.2441   237
 0.2541   246
 0.2641   258
 0.2741   259
 0.2841   289
 0.2941   270
 0.3041   272
 0.3141   240
 0.3241   248
 0.3341   259
 0.3441   232
 0.3541   241
 0.3641   224
 0.3741   216
 0.3841   226
 0.3941   230
 0.4041   232
 0.4141   217
 0.4241   225
 0.4341   213
 0.4441   209
 0.4541   208
 0.4641   217
 0.4741   194
 0.4841   211
 0.4941   229
 0.5041   218
 0.5141   217
 0.5241   223
 0.5341   211
 0.5441   214
 0.5541   215
 0.5641   202
 0.5741   201
 0.5841   193
 0.5941   186
 0.6041   188
 0.6141   206
 0.6241   205
 0.6341   198
 0.6441   200
 0.6541   193
 0.6641   184
 0.6741   185
 0.6841   182
 0.6941   181
 0.7041   188
 0.7141   190
 0.7241   174
 0.7341   171
 0.7441   175
 0.7541   185
 0.7641   185
 0.7741   186
 0.7841   181
 0.7941   177
 0.8041   168
 0.8141   170
 0.8241   171
 0.8341   179
 0.8441   166
 0.8541   173
 0.8641   171
 0.8741   182
 0.8841   188
 0.8941   189
 0.9041   174
 0.9141   173
 0.9241   160
 0.9341   164
 0.9441   163
 0.9541   145
 0.9641   170
 0.9741   168
 0.9841   160
 0.9941   175
 1.0041   166
 1.0141   177
 1.0241   172
 1.0341   169
 1.0441   171
 1.0541   171
 1.0641   166
 1.0741   163
 1.0841   179
 1.0941   178
 1.1041   165
 1.1141   167
 1.1241   161
 1.1341   145
 1.1441   161
 1.1541   178
 1.1641   150
 1.1741   146
 1.1841   151
 1.1941   157
 1.2041   147
 1.2141   150
 1.2241   163
 1.2341   148
 1.2441   142
 1.2541   151
 1.2641   154
 1.2741   133
 1.2841   141
 1.2941   137
 1.3041   155
 1.3141   154
 1.3241   162
 1.3341   160
 1.3441   146
 1.3541   159
 1.3641   168
 1.3741   156
 1.3841   160
 1.3941   146
 1.4041   174
 1.4141   159
 1.4241   154
 1.4341   151
 1.4441   144
 1.4541   142
 1.4641   143
 1.4741   145
 1.4841   140
 1.4941   137
 1.5041   152
 1.5141   156
 1.5241   142
 1.5341   136
 1.5441   127
 1.5541   122
 1.5641   134
 1.5741   136
 1.5841   136
 1.5941   128
 1.6041   156
 1.6141   148
 1.6241   145
 1.6341   161
 1.6441   155
 1.6541   171
 1.6641   202
 1.6741   229
 1.6841   282
 1.6941   381
 1.7041   417
 1.7141   486
 1.7241   571
 1.7341   533
 1.7441   563
 1.7541   560
 1.7641   501
 1.7741   398
 1.7841   330
 1.7941   291
 1.8041   264
 1.8141   233
 1.8241   186
 1.8341   196
 1.8441   150
 1.8541   178
 1.8641   178
 1.8741   189
 1.8841   161
 1.8941   149
 1.9041   145
 1.9141   150
 1.9241   139
 1.9341   147
 1.9441   152
 1.9541   157
 1.9641   150
 1.9741   166
 1.9841   142
 1.9941   178
 2.0041   175
 2.0141   187
 2.0241   153
 2.0341   160
 2.0441   143
 2.0541   145
 2.0641   157
 2.0741   136
 2.0841   142
 2.0941   144
 2.1041   139
 2.1141   136
 2.1241   124
 2.1341   127
 2.1441   137
 2.1541   152
 2.1641   141
 2.1741   138
 2.1841   129
 2.1941   118
 2.2041   130
 2.2141   111
 2.2241   101
 2.2341   125
 2.2441   115
 2.2541   134
 2.2641   130
 2.2741   115
 2.2841   113
 2.2941   131
 2.3041   112
 2.3141   127
 2.3241   105
 2.3341   124
 2.3441   119
 2.3541   113
 2.3641   112
 2.3741   121
 2.3841   129
 2.3941   119
 2.4041   117
 2.4141   139
 2.4241   109
 2.4341   108
 2.4441   111
 2.4541   127
 2.4641   129
 2.4741   117
 2.4841    97
 2.4941   111
 2.5041   122
 2.5141   126
 2.5241   121
 2.5341   124
 2.5441   109
 2.5541    95
 2.5641   127
 2.5741   106
 2.5841   102
 2.5941   113
 2.6041   101
 2.6141   113
 2.6241   105
 2.6341   101
 2.6441   112
 2.6541   112
 2.6641   108
 2.6741   103
 2.6841   111
 2.6941   114
 2.7041   105
 2.7141    93
 2.7241    81
 2.7341   102
 2.7441    93
 2.7541   103
 2.7641   111
 2.7741    95
 2.7841   107
 2.7941   106
 2.8041    98
 2.8141   100
 2.8241   117
 2.8341   119
 2.8441   103
 2.8541   120
 2.8641   112
 2.8741    88
 2.8841    87
 2.8941   116
 2.9041    87
 2.9141   107
 2.9241    88
 2.9341   113
 2.9441   114
 2.9541   104
 2.9641   102
 2.9741   100
 2.9841    83
 2.9941   112
 3.0041    95
 3.0141    81
 3.0241    84
 3.0341    91
 3.0441   100
 3.0541    94
 3.0641   103
 3.0741    91
 3.0841    81
 3.0941    99
 3.1041    79
 3.1141    88
 3.1241    82
 3.1341    85
 3.1441    76
 3.1541    88
 3.1641    81
 3.1741    86
 3.1841   102
 3.1941    80
 3.2041    89
 3.2141    88
 3.2241   117
 3.2341   123
 3.2441   125
 3.2541   160
 3.2641   173
 3.2741   197
 3.2841   211
 3.2941   219
 3.3041   248
 3.3141   245
 3.3241   226
 3.3341   224
 3.3441   188
 3.3541   177
 3.3641   173
 3.3741   166
 3.3841   133
 3.3941   106
 3.4041   101
 3.4141   106
 3.4241    91
 3.4341    91
 3.4441    94
 3.4541    77
 3.4641    81
 3.4741    90
 3.4841    77
 3.4941    97
 3.5041    72
 3.5141   110
 3.5241   116
 3.5341   123
 3.5441   121
 3.5541   154
 3.5641   189
 3.5741   231
 3.5841   320
 3.5941   429
 3.6041   523
 3.6141   745
 3.6241   929
 3.6341  1176
 3.6441  1382
 3.6541  1612
 3.6641  1848
 3.6741  2015
 3.6841  2168
 3.6941  2074
 3.7041  1946
 3.7141  1733
 3.7241  1631
 3.7341  1441
 3.7441  1173
 3.7541   857
 3.7641   661
 3.7741   522
 3.7841   363
 3.7941   283
 3.8041   185
 3.8141   137
 3.8241   136
 3.8341    95
 3.8441    97
 3.8541    97
 3.8641    94
 3.8741    89
 3.8841   108
 3.8941   115
 3.9041   129
 3.9141   112
 3.9241   161
 3.9341   184
 3.9441   197
 3.9541   257
 3.9641   297
 3.9741   351
 3.9841   386
 3.9941   437
 4.0041   433
 4.0141   410
 4.0241   416
 4.0341   401
 4.0441   369
 4.0541   307
 4.0641   282
 4.0741   218
 4.0841   196
 4.0941   162
 4.1041   126
 4.1141   128
 4.1241   123
 4.1341    82
 4.1441    68
 4.1541    71
 4.1641    65
 4.1741    61
 4.1841    69
 4.1941    70
 4.2041    74
 4.2141    78
 4.2241    72
 4.2341    62
 4.2441    60
 4.2541    60
 4.2641    58
 4.2741    48
 4.2841    57
 4.2941    50
 4.3041    66
 4.3141    65
 4.3241    71
 4.3341    68
 4.3441    69
 4.3541    80
 4.3641    76
 4.3741    78
 4.3841    86
 4.3941   109
 4.4041   116
 4.4141   142
 4.4241   151
 4.4341   234
 4.4441   272
 4.4541   283
 4.4641   351
 4.4741   355
 4.4841   402
 4.4941   359
 4.5041   422
 4.5141   423
 4.5241   410
 4.5341   393
 4.5441   341
 4.5541   313
 4.5641   254
 4.5741   225
 4.5841   173
 4.5941   162
 4.6041   128
 4.6141    82
 4.6241    86
 4.6341    78
 4.6441    71
 4.6541    61
 4.6641    83
 4.6741    85
 4.6841    56
 4.6941    79
 4.7041    77
 4.7141    69
 4.7241    81
 4.7341    88
 4.7441    60
 4.7541    79
 4.7641    83
 4.7741    80
 4.7841    67
 4.7941    77
 4.8041    77
 4.8141    84
 4.8241    89
 4.8341    98
 4.8441   105
 4.8541   129
 4.8641   113
 4.8741   126
 4.8841   134
 4.8941   148
 4.9041   141
 4.9141   147
 4.9241   123
 4.9341   148
 4.9441   161
 4.9541   149
 4.9641   138
 4.9741   129
 4.9841   110
 4.9941   112
 5.0041   109
 5.0141   100
 5.0241    86
 5.0341    78
 5.0441    78
 5.0541    85
 5.0641    70
 5.0741    66
 5.0841    61
 5.0941    82
 5.1041    69
 5.1141    68
 5.1241    77
 5.1341    80
 5.1441    83
 5.1541    89
 5.1641    66
 5.1741    75
 5.1841    59
 5.1941    76
 5.2041    70
 5.2141    75
 5.2241    72
 5.2341    64
 5.2441    76
 5.2541    88
 5.2641    87
 5.2741    74
 5.2841    94
 5.2941    89
 5.3041    87
 5.3141    97
 5.3241    81
 5.3341    99
 5.3441    96
 5.3541    99
 5.3641   115
 5.3741   103
 5.3841    96
 5.3941   112
 5.4041   123
 5.4141    94
 5.4241   106
 5.4341    85
 5.4441    95
 5.4541   101
 5.4641    82
 5.4741    91
 5.4841    80
 5.4941    89
 5.5041    73
 5.5141    91
 5.5241    96
 5.5341    71
 5.5441    89
 5.5541    72
 5.5641    71
 5.5741    76
 5.5841    69
 5.5941    74
 5.6041    88
 5.6141    83
 5.6241    74
 5.6341    93
 5.6441    75
 5.6541    95
 5.6641    75
 5.6741    78
 5.6841    67
 5.6941    88
 5.7041    76
 5.7141    95
 5.7241   102
 5.7341   114
 5.7441   103
 5.7541    94
 5.7641   140
 5.7741   143
 5.7841   205
 5.7941   249
 5.8041   268
 5.8141   308
 5.8241   418
 5.8341   478
 5.8441   479
 5.8541   539
 5.8641   650
 5.8741   696
 5.8841   726
 5.8941   751
 5.9041   652
 5.9141   656
 5.9241   604
 5.9341   532
 5.9441   523
 5.9541   437
 5.9641   417
 5.9741   358
 5.9841   266
 5.9941   258
 6.0041   207
 6.0141   166
 6.0241   158
 6.0341   116
 6.0441   129
 6.0541    91
 6.0641    95
 6.0741   113
 6.0841   117
 6.0941   120
 6.1041   112
 6.1141    94
 6.1241   102
 6.1341   124
 6.1441   159
 6.1541   139
 6.1641   129
 6.1741   199
 6.1841   195
 6.1941   257
 6.2041   311
 6.2141   405
 6.2241   597
 6.2341   743
 6.2441   997
 6.2541  1425
 6.2641  1985
 6.2741  2720
 6.2841  3603
 6.2941  4867
 6.3041  6286
 6.3141  7764
 6.3241  9534
 6.3341 11476
 6.3441 13612
 6.3541 15429
 6.3641 17099
 6.3741 18321
 6.3841 19716
 6.3941 20047
 6.4041 20192
 6.4141 19168
 6.4241 18409
 6.4341 16937
 6.4441 14978
 6.4541 13129
 6.4641 11030
 6.4741  9030
 6.4841  7302
 6.4941  5817
 6.5041  4378
 6.5141  3316
 6.5241  2384
 6.5341  1710
 6.5441  1227
 6.5541   856
 6.5641   634
 6.5741   433
 6.5841   312
 6.5941   259
 6.6041   204
 6.6141   178
 6.6241   137
 6.6341   143
 6.6441   163
 6.6541   127
 6.6641   130
 6.6741   151
 6.6841   146
 6.6941   132
 6.7041   144
 6.7141   121
 6.7241   148
 6.7341   131
 6.7441   131
 6.7541   130
 6.7641   115
 6.7741   156
 6.7841   160
 6.7941   156
 6.8041   168
 6.8141   177
 6.8241   181
 6.8341   204
 6.8441   227
 6.8541   214
 6.8641   240
 6.8741   279
 6.8841   307
 6.8941   409
 6.9041   420
 6.9141   558
 6.9241   645
 6.9341   794
 6.9441  1048
 6.9541  1182
 6.9641  1521
 6.9741  1698
 6.9841  2027
 6.9941  2305
 7.0041  2617
 7.0141  2918
 7.0241  3128
 7.0341  3342
 7.0441  3501
 7.0541  3400
 7.0641  3381
 7.0741  3258
 7.0841  3152
 7.0941  2778
 7.1041  2468
 7.1141  2182
 7.1241  1896
 7.1341  1599
 7.1441  1376
 7.1541  1044
 7.1641   905
 7.1741   677
 7.1841   533
 7.1941   441
 7.2041   306
 7.2141   293
 7.2241   238
 7.2341   205
 7.2441   196
 7.2541   179
 7.2641   154
 7.2741   154
 7.2841   146
 7.2941   178
 7.3041   198
 7.3141   169
 7.3241   154
 7.3341   153
 7.3441   172
 7.3541   199
 7.3641   215
 7.3741   183
 7.3841   237
 7.3941   234
 7.4041   250
 7.4141   223
 7.4241   218
 7.4341   221
 7.4441   212
 7.4541   236
 7.4641   217
 7.4741   211
 7.4841   234
 7.4941   236
 7.5041   206
 7.5141   199
 7.5241   180
 7.5341   170
 7.5441   178
 7.5541   167
 7.5641   154
 7.5741   148
 7.5841   148
 7.5941   156
 7.6041   153
 7.6141   163
 7.6241   155
 7.6341   161
 7.6441   148
 7.6541   146
 7.6641   164
 7.6741   139
 7.6841   155
 7.6941   157
 7.7041   176
 7.7141   158
 7.7241   169
 7.7341   173
 7.7441   170
 7.7541   172
 7.7641   181
 7.7741   187
 7.7841   178
 7.7941   182
 7.8041   157
 7.8141   189
 7.8241   213
 7.8341   193
 7.8441   211
 7.8541   224
 7.8641   248
 7.8741   224
 7.8841   261
 7.8941   262
 7.9041   229
 7.9141   236
 7.9241   256
 7.9341   306
 7.9441   343
 7.9541   344
 7.9641   339
 7.9741   360
 7.9841   391
 7.9941   458
 8.0041   467
 8.0141   482
 8.0241   538
 8.0341   523
 8.0441   573
 8.0541   665
 8.0641   696
 8.0741   759
 8.0841   740
 8.0941   791
 8.1041   857
 8.1141   850
 8.1241   887
 8.1341   931
 8.1441   944
 8.1541   934
 8.1641   994
 8.1741  1002
 8.1841   989
 8.1941   997
 8.2041  1006
 8.2141  1128
 8.2241  1080
 8.2341  1069
 8.2441  1109
 8.2541  1182
 8.2641  1204
 8.2741  1310
 8.2841  1368
 8.2941  1506
 8.3041  1587
 8.3141  1745
 8.3241  1971
 8.3341  2034
 8.3441  2183
 8.3541  2277
 8.3641  2340
 8.3741  2387
 8.3841  2432
 8.3941  2485
 8.4041  2350
 8.4141  2234
 8.4241  2238
 8.4341  2064
 8.4441  1851
 8.4541  1625
 8.4641  1446
 8.4741  1256
 8.4841  1141
 8.4941   961
 8.5041   808
 8.5141   656
 8.5241   610
 8.5341   520
 8.5441   441
 8.5541   381
 8.5641   370
 8.5741   333
 8.5841   335
 8.5941   353
 8.6041   312
 8.6141   318
 8.6241   323
 8.6341   318
 8.6441   293
 8.6541   328
 8.6641   306
 8.6741   333
 8.6841   311
 8.6941   266
 8.7041   283
 8.7141   271
 8.7241   291
 8.7341   253
 8.7441   242
 8.7541   250
 8.7641   260
 8.7741   252
 8.7841   240
 8.7941   254
 8.8041   234
 8.8141   228
 8.8241   255
 8.8341   223
 8.8441   242
 8.8541   254
 8.8641   217
 8.8741   224
 8.8841   225
 8.8941   239
 8.9041   225
 8.9141   243
 8.9241   243
 8.9341   225
 8.9441   244
 8.9541   251
 8.9641   270
 8.9741   281
 8.9841   249
 8.9941   260
 9.0041   263
 9.0141   277
 9.0241   275
 9.0341   299
 9.0441   301
 9.0541   286
 9.0641   302
 9.0741   313
 9.0841   302
 9.0941   327
 9.1041   367
 9.1141   347
 9.1241   383
 9.1341   407
 9.1441   406
 9.1541   431
 9.1641   449
 9.1741   470
 9.1841   475
 9.1941   507
 9.2041   542
 9.2141   543
 9.2241   571
 9.2341   604
 9.2441   623
 9.2541   693
 9.2641   701
 9.2741   746
 9.2841   730
 9.2941   769
 9.3041   857
 9.3141   845
 9.3241   884
 9.3341   907
 9.3441   929
 9.3541   936
 9.3641   980
 9.3741   970
 9.3841   935
 9.3941   961
 9.4041   997
 9.4141   961
 9.4241  1049
 9.4341  1045
 9.4441  1067
 9.4541  1063
 9.4641  1094
 9.4741  1080
 9.4841  1140
 9.4941  1158
 9.5041  1182
 9.5141  1205
 9.5241  1228
 9.5341  1302
 9.5441  1386
 9.5541  1348
 9.5641  1523
 9.5741  1561
 9.5841  1635
 9.5941  1717
 9.6041  1856
 9.6141  1982
 9.6241  2103
 9.6341  2162
 9.6441  2133
 9.6541  2233
 9.6641  2254
 9.6741  2171
 9.6841  2183
 9.6941  2104
 9.7041  2031
 9.7141  1979
 9.7241  1852
 9.7341  1719
 9.7441  1575
 9.7541  1473
 9.7641  1328
 9.7741  1207
 9.7841  1178
 9.7941  1071
 9.8041   988
 9.8141  1001
 9.8241   944
 9.8341   896
 9.8441   880
 9.8541   852
 9.8641   878
 9.8741   850
 9.8841   869
 9.8941   900
 9.9041   895
 9.9141   940
 9.9241   976
 9.9341  1031
 9.9441   975
 9.9541   966
 9.9641   948
 9.9741   930
 9.9841   925
 9.9941   893
10.0041   790
10.0141   748
10.0241   701
10.0341   637
10.0441   592
10.0541   539
10.0641   466
10.0741   431
10.0841   404
10.0941   342
10.1041   288
10.1141   258
10.1241   248
10.1341   216
10.1441   204
10.1541   223
10.1641   209
10.1741   192
10.1841   186
10.1941   170
10.2041   150
10.2141   156
10.2241   140
10.2341   153
10.2441   143
10.2541   159
10.2641   152
10.2741   152
10.2841   152
10.2941   145
10.3041   129
10.3141   135
10.3241   114
10.3341   136
10.3441   125
10.3541   134
10.3641   136
10.3741   139
10.3841   135
10.3941   139
10.4041   125
10.4141   139
10.4241   133
10.4341   136
10.4441   132
10.4541   121
10.4641   149
10.4741   136
10.4841   155
10.4941   165
10.5041   151
10.5141   153
10.5241   139
10.5341   163
10.5441   149
10.5541   145
10.5641   145
10.5741   140
10.5841   157
10.5941   174
10.6041   175
10.6141   167
10.6241   166
10.6341   150
10.6441   165
10.6541   150
10.6641   162
10.6741   185
10.6841   181
10.6941   160
10.7041   161
10.7141   179
10.7241   173
10.7341   169
10.7441   196
10.7541   184
10.7641   182
10.7741   183
10.7841   171
10.7941   206
10.8041   209
10.8141   210
10.8241   218
10.8341   213
10.8441   193
10.8541   202
10.8641   224
10.8741   229
10.8841   217
10.8941   223
10.9041   208
10.9141   220
10.9241   237
10.9341   242
10.9441   220
10.9541   229
10.9641   216
10.9741   232
10.9841   229
10.9941   219
11.0041   201
11.0141   207
11.0241   193
11.0341   205
11.0441   206
11.0541   204
11.0641   201
11.0741   196
11.0841   205
11.0941   200
11.1041   189
11.1141   200
11.1241   202
11.1341   205
11.1441   206
11.1541   211
11.1641   217
11.1741   236
11.1841   227
11.1941   237
11.2041   240
11.2141   252
11.2241   273
11.2341   290
11.2441   312
11.2541   330
11.2641   338
11.2741   338
11.2841   309
11.2941   311
11.3041   301
11.3141   305
11.3241   288
11.3341   280
11.3441   260
11.3541   260
11.3641   241
11.3741   250
11.3841   223
11.3941   194
11.4041   187
11.4141   169
11.4241   173
11.4341   178
11.4441   187
11.4541   185
11.4641   174
11.4741   177
11.4841   183
11.4941   174
11.5041   174
11.5141   159
11.5241   166
11.5341   159
11.5441   161
11.5541   154
11.5641   158
11.5741   173
11.5841   181
11.5941   187
11.6041   180
11.6141   174
11.6241   161
11.6341   171
11.6441   174
11.6541   163
11.6641   147
11.6741   156
11.6841   160
11.6941   153
11.7041   145
11.7141   155
11.7241   166
11.7341   162
11.7441   154
11.7541   164
11.7641   146
11.7741   118
11.7841   128
11.7941   121
11.8041   123
11.8141   125
11.8241   123
11.8341   131
11.8441   129
11.8541   124
11.8641   128
11.8741   122
11.8841   127
11.8941   125
11.9041   117
11.9141   119
11.9241   127
11.9341   130
11.9441   132
11.9541   142
11.9641   136
11.9741   122
11.9841   127
11.9941   115
12.0041   117
12.0141   149
12.0241   153
12.0341   141
12.0441   135
12.0541   132
12.0641   131
12.0741   130
12.0841   121
12.0941   128
12.1041   131
12.1141   119
12.1241   108
12.1341   119
12.1441   118
12.1541   125
12.1641   122
12.1741   122
12.1841   116
12.1941   113
12.2041   123
12.2141   115
12.2241   119
12.2341   113
12.2441   132
12.2541   135
12.2641   125
12.2741   124
12.2841   129
12.2941   127
12.3041   112
12.3141   124
12.3241   116
12.3341   114
12.3441   120
12.3541   126
12.3641   128
12.3741   120
12.3841   116
12.3941   125
12.4041   134
12.4141   135
12.4241   134
12.4341   119
12.4441   113
12.4541   144
12.4641   145
12.4741   140
12.4841   133
12.4941   122
12.5041   133
12.5141   129
12.5241   135
12.5341   137
12.5441   140
12.5541   140
12.5641   126
12.5741   117
12.5841   122
12.5941   137
12.6041   149
12.6141   144
12.6241   138
12.6341   137
12.6441   139
12.6541   139
12.6641   148
12.6741   137
12.6841   134
12.6941   139
12.7041   128
12.7141   123
12.7241   125
12.7341   134
12.7441   139
12.7541   140
12.7641   146
12.7741   154
12.7841   150
12.7941   140
12.8041   140
12.8141   143
12.8241   140
12.8341   142
12.8441   146
12.8541   144
12.8641   141
12.8741   144
12.8841   148
12.8941   150
12.9041   149
12.9141   147
12.9241   148
12.9341   149
12.9441   149
12.9541   155
12.9641   164
12.9741   164
12.9841   161
12.9941   163
13.0041   167
13.0141   165
13.0241   159
13.0341   149
13.0441   141
13.0541   135
13.0641   150
13.0741   157
13.0841   138
13.0941   134
13.1041   154
13.1141   158
13.1241   147
13.1341   144
13.1441   148
13.1541   151
13.1641   156
13.1741   173
13.1841   161
13.1941   155
13.2041   189
13.2141   180
13.2241   175
13.2341   200
13.2441   204
13.2541   205
13.2641   201
13.2741   203
13.2841   203
13.2941   212
13.3041   222
13.3141   228
13.3241   239
13.3341   237
13.3441   233
13.3541   238
13.3641   249
13.3741   250
13.3841   246
13.3941   261
13.4041   273
13.4141   254
13.4241   232
13.4341   242
13.4441   231
13.4541   221
13.4641   224
13.4741   225
13.4841   208
13.4941   181
13.5041   183
13.5141   194
13.5241   194
13.5341   189
13.5441   177
13.5541   179
13.5641   200
13.5741   193
13.5841   191
13.5941   199
13.6041   196
13.6141   182
13.6241   176
13.6341   182
13.6441   181
13.6541   181
13.6641   177
13.6741   179
13.6841   193
13.6941   193
13.7041   172
13.7141   178
13.7241   180
13.7341   177
13.7441   190
13.7541   180
13.7641   180
13.7741   190
13.7841   186
13.7941   182
13.8041   200
13.8141   206
13.8241   187
13.8341   181
13.8441   182
13.8541   188
13.8641   203
13.8741   201
13.8841   193
13.8941   190
13.9041   196
13.9141   195
13.9241   185
13.9341   195
13.9441   205
13.9541   206
13.9641   212
13.9741   218
13.9841   228
13.9941   228
14.0041   224
14.0141   243
14.0241   279
14.0341   290
14.0441   280
14.0541   287
14.0641   298
14.0741   313
14.0841   338
14.0941   338
14.1041   320
14.1141   335
14.1241   343
14.1341   337
14.1441   345
14.1541   345
14.1641   352
14.1741   354
14.1841   335
14.1941   329
14.2041   322
14.2141   324
14.2241   316
14.2341   307
14.2441   294
14.2541   288
14.2641   285
14.2741   268
14.2841   262
14.2941   258
14.3041   246
14.3141   239
14.3241   238
14.3341   233
14.3441   227
14.3541   226
14.3641   236
14.3741   230
14.3841   214
14.3941   216
14.4041   202
14.4141   205
14.4241   230
14.4341   227
14.4441   214
14.4541   204
14.4641   213
14.4741   228
14.4841   218
14.4941   219
14.5041   226
14.5141   214
14.5241   209
14.5341   227
14.5441   238
14.5541   219
14.5641   224
14.5741   225
14.5841   217
14.5941   237
14.6041   244
14.6141   241
14.6241   242
14.6341   246
14.6441   228
14.6541   222
14.6641   227
14.6741   217
14.6841   233
14.6941   217
14.7041   213
14.7141   240
14.7241   249
14.7341   251
14.7441   244
14.7541   253
14.7641   260
14.7741   244
14.7841   240
14.7941   261
14.8041   258
14.8141   276
14.8241   270
14.8341   252
14.8441   266
14.8541   270
14.8641   284
14.8741   292
14.8841   280
14.8941   289
14.9041   291
14.9141   284
14.9241   275
14.9341   285
14.9441   288
14.9541   289
14.9641   298
14.9741   294
14.9841   287
14.9941   279
15.0041   268
15.0141   284
15.0241   304
15.0341   294
15.0441   291
15.0541   283
15.0641   265
15.0741   260
15.0841   274
15.0941   278
15.1041   275
15.1141   283
15.1241   268
15.1341   257
15.1441   269
15.1541   268
15.1641   259
15.1741   267
15.1841   276
15.1941   291
15.2041   284
15.2141   262
15.2241   259
15.2341   263
15.2441   274
15.2541   272
15.2641   263
15.2741   258
15.2841   284
15.2941   287
15.3041   269
15.3141   269
15.3241   298
15.3341   299
15.3441   277
15.3541   264
15.3641   280
15.3741   284
15.3841   267
15.3941   283
15.4041   274
15.4141   263
15.4241   273
15.4341   283
15.4441   291
15.4541   288
15.4641   274
15.4741   285
15.4841   302
15.4941   299
15.5041   306
15.5141   298
15.5241   297
15.5341   317
15.5441   304
15.5541   315
15.5641   339
15.5741   360
15.5841   353
15.5941   361
15.6041   373
15.6141   388
15.6241   415
15.6341   445
15.6441   457
15.6541   437
15.6641   493
15.6741   512
15.6841   491
15.6941   503
15.7041   514
15.7141   516
15.7241   542
15.7341   563
15.7441   541
15.7541   540
15.7641   569
15.7741   547
15.7841   545
15.7941   555
15.8041   536
15.8141   536
15.8241   488
15.8341   478
15.8441   477
15.8541   479
15.8641   495
15.8741   465
15.8841   426
15.8941   417
15.9041   404
15.9141   384
15.9241   372
15.9341   354
15.9441   344
15.9541   373
15.9641   338
15.9741   331
15.9841   311
15.9941   309
16.0041   314
16.0141   314
16.0241   334
16.0341   351
16.0441   332
16.0541   335
16.0641   324
16.0741   319
16.0841   336
16.0941   331
16.1041   301
16.1141   328
16.1241   324
16.1341   321
16.1441   355
16.1541   351
16.1641   329
16.1741   311
16.1841   322
16.1941   318
16.2041   335
16.2141   325
16.2241   328
16.2341   344
16.2441   327
16.2541   331
16.2641   362
16.2741   346
16.2841   342
16.2941   331
16.3041   349
16.3141   325
16.3241   321
16.3341   333
16.3441   331
16.3541   333
16.3641   355
16.3741   352
16.3841   324
16.3941   321
16.4041   348
16.4141   334
16.4241   331
16.4341   326
16.4441   336
16.4541   357
16.4641   327
16.4741   341
16.4841   347
16.4941   357
16.5041   373
16.5141   337
16.5241   349
16.5341   362
16.5441   383
16.5541   380
16.5641   395
16.5741   372
16.5841   356
16.5941   385
16.6041   365
16.6141   349
16.6241   351
16.6341   335
16.6441   352
16.6541   382
16.6641   379
16.6741   370
16.6841   359
16.6941   392
16.7041   418
16.7141   380
16.7241   347
16.7341   353
16.7441   385
16.7541   397
16.7641   368
16.7741   367
16.7841   387
16.7941   361
16.8041   362
16.8141   356
16.8241   366
16.8341   369
16.8441   377
16.8541   355
16.8641   379
16.8741   387
16.8841   387
16.8941   379
16.9041   392
16.9141   396
16.9241   375
16.9341   383
16.9441   390
16.9541   384
16.9641   371
16.9741   377
16.9841   384
16.9941   378
17.0041   379
17.0141   372
17.0241   370
17.0341   370
17.0441   390
17.0541   392
17.0641   386
17.0741   373
17.0841   406
17.0941   390
17.1041   406
17.1141   397
17.1241   394
17.1341   372
17.1441   380
17.1541   414
17.1641   419
17.1741   390
17.1841   361
17.1941   396
17.2041   388
17.2141   367
17.2241   384
17.2341   401
17.2441   390
17.2541   397
17.2641   411
17.2741   398
17.2841   427
17.2941   399
17.3041   360
17.3141   385
17.3241   399
17.3341   392
17.3441   413
17.3541   410
17.3641   399
17.3741   421
17.3841   424
17.3941   414
17.4041   425
17.4141   421
17.4241   428
17.4341   410
17.4441   433
17.4541   416
17.4641   424
17.4741   411
17.4841   423
17.4941   432
17.5041   464
17.5141   456
17.5241   405
17.5341   430
17.5441   444
17.5541   424
17.5641   415
17.5741   451
17.5841   439
17.5941   447
17.6041   449
17.6141   420
17.6241   446
17.6341   466
17.6441   446
17.6541   471
17.6641   456
17.6741   446
17.6841   435
17.6941   444
17.7041   422
17.7141   428
17.7241   466
17.7341   468
17.7441   476
17.7541   460
17.7641   451
17.7741   420
17.7841   444
17.7941   467
17.8041   443
17.8141   451
17.8241   471
17.8341   497
17.8441   438
17.8541   422
17.8641   417
17.8741   449
17.8841   444
17.8941   431
17.9041   413
17.9141   416
17.9241   412
17.9341   399
17.9441   431
17.9541   410
17.9641   460
17.9741   470
17.9841   491
17.9941   448
18.0041   426
18.0141   456
18.0241   438
18.0341   455
18.0441   434
18.0541   441
18.0641   450
18.0741   435
18.0841   435
18.0941   429
18.1041   446
18.1141   425
18.1241   423
18.1341   430
18.1441   445
18.1541   437
18.1641   426
18.1741   421
18.1841   444
18.1941   448
18.2041   441
18.2141   431
18.2241   460
18.2341   455
18.2441   455
18.2541   434
18.2641   428
18.2741   443
18.2841   481
18.2941   450
18.3041   450
18.3141   459
18.3241   466
18.3341   459
18.3441   452
18.3541   453
18.3641   448
18.3741   465
18.3841   454
18.3941   467
18.4041   459
18.4141   454
18.4241   460
18.4341   471
18.4441   459
18.4541   464
18.4641   445
18.4741   454
18.4841   445
18.4941   454
18.5041   451
18.5141   464
18.5241   470
18.5341   485
18.5441   446
18.5541   470
18.5641   482
18.5741   453
18.5841   446
18.5941   479
18.6041   491
18.6141   455
18.6241   468
18.6341   452
18.6441   465
18.6541   447
18.6641   465
18.6741   481
18.6841   480
18.6941   472
18.7041   434
18.7141   465
18.7241   456
18.7341   474
18.7441   467
18.7541   466
18.7641   468
18.7741   498
18.7841   501
18.7941   457
18.8041   490
18.8141   487
18.8241   465
18.8341   495
18.8441   460
18.8541   437
18.8641   477
18.8741   468
18.8841   476
18.8941   496
18.9041   440
18.9141   477
18.9241   475
18.9341   485
18.9441   491
18.9541   480
18.9641   467
18.9741   477
18.9841   490
18.9941   466
19.0041   453
19.0141   499
19.0241   480
19.0341   499
19.0441   496
19.0541   479
19.0641   505
19.0741   511
19.0841   480
19.0941   468
19.1041   480
19.1141   487
19.1241   486
19.1341   493
19.1441   489
19.1541   500
19.1641   484
19.1741   456
19.1841   489
19.1941   518
19.2041   490
19.2141   471
19.2241   486
19.2341   531
19.2441   453
19.2541   438
19.2641   479
19.2741   456
19.2841   474
19.2941   461
19.3041   474
19.3141   472
19.3241   501
19.3341   480
19.3441   480
19.3541   485
19.3641   452
19.3741   470
19.3841   481
19.3941   498
19.4041   483
19.4141   542
19.4241   474
19.4341   473
19.4441   481
19.4541   475
19.4641   486
19.4741   455
19.4841   484
19.4941   482
19.5041   467
19.5141   480
19.5241   496
19.5341   483
19.5441   513
19.5541   484
19.5641   508
19.5741   488
19.5841   466
19.5941   492
19.6041   494
19.6141   526
19.6241   494
19.6341   512
19.6441   510
19.6541   519
19.6641   503
19.6741   492
19.6841   519
19.6941   498
19.7041   511
19.7141   509
19.7241   529
19.7341   540
19.7441   506
19.7541   473
19.7641   472
19.7741   515
19.7841   502
19.7941   467
19.8041   470
19.8141   511
19.8241   494
19.8341   469
19.8441   485
19.8541   483
19.8641   503
19.8741   520
19.8841   520
19.8941   507
19.9041   478
19.9141   522
19.9241   508
19.9341   490
19.9441   477
19.9541   448
19.9641   487
19.9741   510
19.9841   507
19.9941   501
20.0041   515
20.0141   518
20.0241   538
20.0341   495
20.0441   536
20.0541   501
20.0641   497
20.0741   508
20.0841   488
20.0941   483
20.1041   493
20.1141   499
20.1241   512
20.1341   487
20.1441   492
20.1541   518
20.1641   509
20.1741   492
20.1841   478
20.1941   512
20.2041   489
20.2141   497
20.2241   513
20.2341   488
20.2441   487
20.2541   490
20.2641   469
20.2741   520
20.2841   486
20.2941   499
20.3041   520
20.3141   527
20.3241   526
20.3341   520
20.3441   502
20.3541   507
20.3641   491
20.3741   472
20.3841   497
20.3941   495
20.4041   526
20.4141   524
20.4241   513
20.4341   520
20.4441   524
20.4541   522
20.4641   541
20.4741   498
20.4841   507
20.4941   512
20.5041   537
20.5141   531
20.5241   534
20.5341   517
20.5441   513
20.5541   485
20.5641   475
20.5741   500
20.5841   518
20.5941   502
20.6041   495
20.6141   511
20.6241   495
20.6341   502
20.6441   526
20.6541   492
20.6641   542
20.6741   510
20.6841   497
20.6941   482
20.7041   492
20.7141   499
20.7241   541
20.7341   526
20.7441   507
20.7541   536
20.7641   545
20.7741   502
20.7841   527
20.7941   511
20.8041   555
20.8141   499
20.8241   558
20.8341   560
20.8441   527
20.8541   537
20.8641   569
20.8741   523
20.8841   553
20.8941   543
20.9041   587
20.9141   557
20.9241   593
20.9341   576
20.9441   593
20.9541   609
20.9641   632
20.9741   610
20.9841   637
20.9941   702
21.0041   633
21.0141   691
21.0241   689
21.0341   697
21.0441   711
21.0541   704
21.0641   725
21.0741   714
21.0841   744
21.0941   721
21.1041   734
21.1141   716
21.1241   748
21.1341   776
21.1441   746
21.1541   724
21.1641   711
21.1741   740
21.1841   756
21.1941   687
21.2041   739
21.2141   739
21.2241   677
21.2341   693
21.2441   649
21.2541   681
21.2641   656
21.2741   604
21.2841   637
21.2941   616
21.3041   627
21.3141   579
21.3241   552
21.3341   567
21.3441   550
21.3541   571
21.3641   531
21.3741   560
21.3841   526
21.3941   495
21.4041   529
21.4141   496
21.4241   514
21.4341   507
21.4441   532
21.4541   520
21.4641   512
21.4741   514
21.4841   496
21.4941   525
21.5041   507
21.5141   536
21.5241   500
21.5341   464
21.5441   528
21.5541   516
21.5641   479
21.5741   526
21.5841   533
21.5941   508
21.6041   514
21.6141   483
21.6241   518
21.6341   523
21.6441   518
21.6541   517
21.6641   504
21.6741   515
21.6841   501
21.6941   517
21.7041   526
21.7141   518
21.7241   501
21.7341   505
21.7441   507
21.7541   496
21.7641   494
21.7741   508
21.7841   549
21.7941   517
21.8041   501
21.8141   503
21.8241   488
21.8341   502
21.8441   510
21.8541   516
21.8641   488
21.8741   516
21.8841   550
21.8941   538
21.9041   528
21.9141   502
21.9241   506
21.9341   522
21.9441   518
21.9541   501
21.9641   498
21.9741   459
21.9841   483
21.9941   506
22.0041   491
22.0141   474
22.0241   497
22.0341   525
22.0441   515
22.0541   497
22.0641   493
22.0741   474
22.0841   503
22.0941   508
22.1041   494
22.1141   483
22.1241   472
22.1341   493
22.1441   484
22.1541   523
22.1641   502
22.1741   486
22.1841   469
22.1941   470
22.2041   511
22.2141   464
22.2241   513
22.2341   500
22.2441   495
22.2541   474
22.2641   498
22.2741   514
22.2841   479
22.2941   490
22.3041   467
22.3141   523
22.3241   514
22.3341   512
22.3441   521
22.3541   482
22.3641   485
22.3741   529
22.3841   495
22.3941   499
22.4041   509
22.4141   528
22.4241   484
22.4341   498
22.4441   464
22.4541   494
22.4641   495
22.4741   492
22.4841   525
22.4941   496
22.5041   504
22.5141   487
22.5241   506
22.5341   512
22.5441   464
22.5541   478
22.5641   447
22.5741   530
22.5841   481
22.5941   457
22.6041   514
22.6141   513
22.6241   509
22.6341   504
22.6441   472
22.6541   525
22.6641   502
22.6741   508
22.6841   510
22.6941   484
22.7041   490
22.7141   505
22.7241   511
22.7341   509
22.7441   478
22.7541   499
22.7641   485
22.7741   433
22.7841   474
22.7941   481
22.8041   454
22.8141   464
22.8241   525
22.8341   508
22.8441   448
22.8541   547
22.8641   473
22.8741   502
22.8841   483
22.8941   499
22.9041   469
22.9141   504
22.9241   469
22.9341   489
22.9441   473
22.9541   439
22.9641   530
22.9741   483
22.9841   498
22.9941   512
23.0041   478
23.0141   455
23.0241   444
23.0341   489
23.0441   474
23.0541   467
23.0641   487
23.0741   446
23.0841   500
23.0941   486
23.1041   476
23.1141   488
23.1241   430
23.1341   483
23.1441   508
23.1541   495
23.1641   484
23.1741   427
23.1841   507
23.1941   533
23.2041   471
23.2141   485
23.2241   494
23.2341   430
23.2441   446
23.2541   439
23.2641   523
23.2741   514
23.2841   425
23.2941   430
23.3041   465
23.3141   451
23.3241   513
23.3341   456
23.3441   478
23.3541   470
23.3641   462
23.3741   486
23.3841   482
23.3941   501
23.4041   485
23.4141   487
23.4241   544
23.4341   463
23.4441   492
23.4541   491
23.4641   497
23.4741   499
23.4841   456
23.4941   461
23.5041   449
23.5141   475
23.5241   475
23.5341   457
23.5441   468
23.5541   472
23.5641   518
23.5741   415
23.5841   459
23.5941   479
23.6041   431
23.6141   514
23.6241   447
23.6341   497
23.6441   458
23.6541   462
23.6641   475
23.6741   469
23.6841   475
23.6941   466
23.7041   520
23.7141   516
23.7241   469
23.7341   474
23.7441   481
23.7541   526
23.7641   467
23.7741   446
23.7841   488
23.7941   456
23.8041   535
23.8141   476
23.8241   507
23.8341   465
23.8441   482
23.8541   528
23.8641   519
23.8741   533
23.8841   522
23.8941   481
23.9041   458
23.9141   445
23.9241   463
23.9341   499
23.9441   446
23.9541   426
23.9641   450
23.9741   495
23.9841   458
23.9941   433
24.0041   483
24.0141   460
24.0241   465
24.0341   436
24.0441   455
24.0541   476
24.0641   461
24.0741   441
24.0841   444
24.0941   459
24.1041   470
24.1141   433
24.1241   444
24.1341   447
24.1441   474
24.1541   443
24.1641   461
24.1741   465
24.1841   438
24.1941   451
24.2041   464
24.2141   457
24.2241   474
24.2341   477
24.2441   418
24.2541   489
24.2641   419
24.2741   485
24.2841   472
24.2941   432
24.3041   448
24.3141   419
24.3241   426
24.3341   460
24.3441   428
24.3541   454
24.3641   464
24.3741   444
24.3841   430
24.3941   434
24.4041   396
24.4141   461
24.4241   468
24.4341   447
24.4441   494
24.4541   470
24.4641   441
24.4741   434
24.4841   433
24.4941   442
24.5041   461
24.5141   432
24.5241   423
24.5341   446
24.5441   431
24.5541   449
24.5641   415
24.5741   422
24.5841   426
24.5941   395
24.6041   413
24.6141   454
24.6241   455
24.6341   407
24.6441   443
24.6541   450
24.6641   404
24.6741   443
24.6841   455
24.6941   420
24.7041   437
24.7141   472
24.7241   457
24.7341   450
24.7441   434
24.7541   441
24.7641   435
24.7741   444
24.7841   438
24.7941   426
24.8041   433
24.8141   432
24.8241   445
24.8341   403
24.8441   443
24.8541   415
24.8641   424
24.8741   437
24.8841   420
24.8941   424
24.9041   416
24.9141   418
24.9241   449
24.9341   453
24.9441   428
24.9541   438
24.9641   423
24.9741   407
24.9841   374
24.9941   429
25.0041   443
25.0141   441
25.0241   454
25.0341   423
25.0441   412
25.0541   440
25.0641   415
25.0741   427
25.0841   454
25.0941   433
25.1041   429
25.1141   444
25.1241   411
25.1341   428
25.1441   416
25.1541   434
25.1641   416
25.1741   444
25.1841   443
25.1941   456
25.2041   421
25.2141   423
25.2241   430
25.2341   434
25.2441   418
25.2541   441
25.2641   419
25.2741   443
25.2841   471
25.2941   413
25.3041   430
25.3141   420
25.3241   437
25.3341   469
25.3441   414
25.3541   448
25.3641   443
25.3741   411
25.3841   403
25.3941   416
25.4041   442
25.4141   401
25.4241   397
25.4341   406
25.4441   399
25.4541   404
25.4641   405
25.4741   420
25.4841   411
25.4941   401
25.5041   381
25.5141   389
25.5241   385
25.5341   400
25.5441   409
25.5541   373
25.5641   416
25.5741   421
25.5841   408
25.5941   376
25.6041   380
25.6141   371
25.6241   384
25.6341   405
25.6441   399
25.6541   416
25.6641   410
25.6741   415
25.6841   410
25.6941   408
25.7041   411
25.7141   398
25.7241   402
25.7341   414
25.7441   398
25.7541   393
25.7641   381
25.7741   390
25.7841   394
25.7941   401
25.8041   376
25.8141   410
25.8241   412
25.8341   412
25.8441   416
25.8541   370
25.8641   350
25.8741   397
25.8841   392
25.8941   373
25.9041   355
25.9141   379
25.9241   398
25.9341   383
25.9441   397
25.9541   399
25.9641   378
25.9741   386
25.9841   382
25.9941   393
26.0041   400
26.0141   387
26.0241   397
26.0341   393
26.0441   376
26.0541   377
26.0641   368
26.0741   352
26.0841   405
26.0941   399
26.1041   385
26.1141   362
26.1241   395
26.1341   377
26.1441   339
26.1541   391
26.1641   360
26.1741   381
26.1841   371
26.1941   367
26.2041   424
26.2141   366
26.2241   377
26.2341   362
26.2441   409
26.2541   399
26.2641   405
26.2741   383
26.2841   377
26.2941   355
26.3041   377
26.3141   336
26.3241   374
26.3341   374
26.3441   360
26.3541   353
26.3641   354
26.3741   347
26.3841   352
26.3941   386
26.4041   389
26.4141   372
26.4241   389
26.4341   387
26.4441   363
26.4541   367
26.4641   374
26.4741   346
26.4841   361
26.4941   374
26.5041   406
26.5141   356
26.5241   346
26.5341   357
26.5441   367
26.5541   376
26.5641   340
26.5741   374
26.5841   333
26.5941   356
26.6041   364
26.6141   385
26.6241   375
26.6341   390
26.6441   352
26.6541   359
26.6641   359
26.6741   376
26.6841   371
26.6941   359
26.7041   379
26.7141   373
26.7241   357
26.7341   370
26.7441   337
26.7541   340
26.7641   319
26.7741   342
26.7841   336
26.7941   316
26.8041   334
26.8141   335
26.8241   339
26.8341   341
26.8441   371
26.8541   339
26.8641   349
26.8741   378
26.8841   338
26.8941   356
26.9041   358
26.9141   370
26.9241   336
26.9341   327
26.9441   339
26.9541   337
26.9641   331
26.9741   345
26.9841   370
26.9941   358
27.0041   340
27.0141   361
27.0241   356
27.0341   358
27.0441   324
27.0541   377
27.0641   341
27.0741   348
27.0841   364
27.0941   356
27.1041   331
27.1141   325
27.1241   343
27.1341   354
27.1441   338
27.1541   350
27.1641   361
27.1741   328
27.1841   347
27.1941   329
27.2041   321
27.2141   337
27.2241   325
27.2341   357
27.2441   361
27.2541   316
27.2641   315
27.2741   309
27.2841   314
27.2941   355
27.3041   355
27.3141   348
27.3241   347
27.3341   330
27.3441   362
27.3541   334
27.3641   321
27.3741   354
27.3841   354
27.3941   341
27.4041   340
27.4141   352
27.4241   363
27.4341   348
27.4441   319
27.4541   332
27.4641   349
27.4741   352
27.4841   325
27.4941   310
27.5041   325
27.5141   332
27.5241   326
27.5341   299
27.5441   313
27.5541   344
27.5641   332
27.5741   325
27.5841   308
27.5941   323
27.6041   359
27.6141   326
27.6241   329
27.6341   296
27.6441   328
27.6541   332
27.6641   303
27.6741   310
27.6841   336
27.6941   291
27.7041   304
27.7141   321
27.7241   286
27.7341   338
27.7441   325
27.7541   346
27.7641   326
27.7741   301
27.7841   326
27.7941   293
27.8041   315
27.8141   305
27.8241   315
27.8341   335
27.8441   302
27.8541   322
27.8641   297
27.8741   310
27.8841   286
27.8941   293
27.9041   334
27.9141   319
27.9241   314
27.9341   307
27.9441   334
27.9541   321
27.9641   300
27.9741   297
27.9841   301
27.9941   288
28.0041   309
28.0141   299
28.0241   292
28.0341   307
28.0441   292
28.0541   279
28.0641   337
28.0741   308
28.0841   309
28.0941   300
28.1041   321
28.1141   319
28.1241   300
28.1341   296
28.1441   326
28.1541   286
28.1641   315
28.1741   261
28.1841   296
28.1941   299
28.2041   259
28.2141   299
28.2241   303
28.2341   303
28.2441   309
28.2541   282
28.2641   280
28.2741   296
28.2841   301
28.2941   305
28.3041   270
28.3141   313
28.3241   308
28.3341   302
28.3441   287
28.3541   312
28.3641   290
28.3741   283
28.3841   295
28.3941   263
28.4041   306
28.4141   303
28.4241   312
28.4341   292
28.4441   282
28.4541   287
28.4641   302
28.4741   303
28.4841   287
28.4941   265
28.5041   305
28.5141   264
28.5241   298
28.5341   296
28.5441   265
28.5541   293
28.5641   270
28.5741   290
28.5841   285
28.5941   286
28.6041   273
28.6141   274
28.6241   286
28.6341   299
28.6441   287
28.6541   295
28.6641   291
28.6741   297
28.6841   271
28.6941   287
28.7041   274
28.7141   289
28.7241   279
28.7341   273
28.7441   259
28.7541   307
28.7641   272
28.7741   285
28.7841   292
28.7941   284
28.8041   305
28.8141   284
28.8241   267
28.8341   302
28.8441   267
28.8541   265
28.8641   302
28.8741   293
28.8841   274
28.8941   275
28.9041   297
28.9141   299
28.9241   268
28.9341   300
28.9441   261
28.9541   240
28.9641   240
28.9741   262
28.9841   241
28.9941   260
29.0041   278
29.0141   271
29.0241   284
29.0341   252
29.0441   263
29.0541   278
29.0641   243
29.0741   252
29.0841   258
29.0941   250
29.1041   260
29.1141   237
29.1241   233
29.1341   268
29.1441   276
29.1541   233
29.1641   229
29.1741   258
29.1841   257
29.1941   243
29.2041   259
29.2141   255
29.2241   282
29.2341   263
29.2441   277
29.2541   279
29.2641   268
29.2741   283
29.2841   274
29.2941   283
29.3041   250
29.3141   247
29.3241   236
29.3341   262
29.3441   278
29.3541   248
29.3641   252
29.3741   226
29.3841   259
29.3941   248
29.4041   285
29.4141   268
29.4241   261
29.4341   229
29.4441   267
29.4541   240
29.4641   240
29.4741   247
29.4841   257
29.4941   255
29.5041   260
29.5141   234
29.5241   233
29.5341   242
29.5441   237
29.5541   247
29.5641   247
29.5741   252
29.5841   225
29.5941   251
29.6041   239
29.6141   258
29.6241   276
29.6341   248
29.6441   263
29.6541   240
29.6641   247
29.6741   245
29.6841   241
29.6941   260
29.7041   235
29.7141   226
29.7241   233
29.7341   227
29.7441   252
29.7541   242
29.7641   219
29.7741   257
29.7841   235
29.7941   237
29.8041   230
29.8141   238
29.8241   249
29.8341   238
29.8441   244
29.8541   243
29.8641   244
29.8741   238
29.8841   233
29.8941   239
29.9041   252
29.9141   237
29.9241   240
29.9341   224
29.9441   248
29.9541   248
29.9641   230
29.9741   235
29.9841   211
29.9941   221
30.0041   224
30.0141   221
30.0241   232
30.0341   230
30.0441   222
30.0541   238
30.0641   231
30.0741   234
30.0841   238
30.0941   248
30.1041   233
30.1141   244
30.1241   220
30.1341   240
30.1441   217
30.1541   228
30.1641   235
30.1741   218
30.1841   221
30.1941   227
30.2041   224
30.2141   226
30.2241   229
30.2341   226
30.2441   220
30.2541   222
30.2641   214
30.2741   221
30.2841   213
30.2941   236
30.3041   213
30.3141   226
30.3241   227
30.3341   230
30.3441   218
30.3541   234
30.3641   220
30.3741   226
30.3841   234
30.3941   214
30.4041   228
30.4141   223
30.4241   193
30.4341   219
30.4441   222
30.4541   185
30.4641   226
30.4741   224
30.4841   195
30.4941   191
30.5041   214
30.5141   222
30.5241   210
30.5341   197
30.5441   211
30.5541   208
30.5641   211
30.5741   236
30.5841   206
30.5941   221
30.6041   208
30.6141   200
30.6241   215
30.6341   198
30.6441   196
30.6541   208
30.6641   201
30.6741   214
30.6841   195
30.6941   187
30.7041   200
30.7141   221
30.7241   223
30.7341   215
30.7441   204
30.7541   201
30.7641   195
30.7741   199
30.7841   227
30.7941   189
30.8041   196
30.8141   169
30.8241   197
30.8341   210
30.8441   217
30.8541   213
30.8641   209
30.8741   203
30.8841   222
30.8941   198
30.9041   208
30.9141   204
30.9241   209
30.9341   201
30.9441   204
30.9541   209
30.9641   190
30.9741   219
30.9841   209
30.9941   182
31.0041   200
31.0141   200
31.0241   186
31.0341   199
31.0441   194
31.0541   222
31.0641   204
31.0741   202
31.0841   189
31.0941   200
31.1041   217
31.1141   188
31.1241   187
31.1341   207
31.1441   193
31.1541   206
31.1641   204
31.1741   187
31.1841   172
31.1941   172
31.2041   204
31.2141   188
31.2241   181
31.2341   175
31.2441   182
31.2541   180
31.2641   183
31.2741   200
31.2841   199
31.2941   202
31.3041   175
31.3141   180
31.3241   206
31.3341   182
31.3441   188
31.3541   185
31.3641   204
31.3741   186
31.3841   160
31.3941   176
31.4041   171
31.4141   196
31.4241   176
31.4341   191
31.4441   196
31.4541   180
31.4641   184
31.4741   208
31.4841   177
31.4941   186
31.5041   194
31.5141   167
31.5241   190
31.5341   185
31.5441   192
31.5541   188
31.5641   170
31.5741   175
31.5841   183
31.5941   168
31.6041   165
31.6141   180
31.6241   151
31.6341   181
31.6441   170
31.6541   197
31.6641   181
31.6741   179
31.6841   186
31.6941   169
31.7041   186
31.7141   208
31.7241   189
31.7341   182
31.7441   171
31.7541   191
31.7641   163
31.7741   184
31.7841   191
31.7941   192
31.8041   177
31.8141   188
31.8241   200
31.8341   165
31.8441   183
31.8541   174
31.8641   183
31.8741   178
31.8841   170
31.8941   152
31.9041   143
31.9141   172
31.9241   183
31.9341   170
31.9441   184
31.9541   179
31.9641   182
31.9741   177
31.9841   159
31.9941   175
32.0041   177
32.0141   174
32.0241   177
32.0341   160
32.0441   162
32.0541   182
32.0641   175
32.0741   205
32.0841   166
32.0941   151
32.1041   179
32.1141   164
32.1241   186
32.1341   178
32.1441   166
32.1541   167
32.1641   193
32.1741   166
32.1841   158
32.1941   162
32.2041   167
32.2141   189
32.2241   156
32.2341   173
32.2441   180
32.2541   173
32.2641   158
32.2741   177
32.2841   178
32.2941   182
32.3041   195
32.3141   166
32.3241   170
32.3341   152
32.3441   161
32.3541   159
32.3641   150
32.3741   171
32.3841   152
32.3941   153
32.4041   155
32.4141   195
32.4241   153
32.4341   169
32.4441   166
32.4541   152
32.4641   166
32.4741   157
32.4841   172
32.4941   170
32.5041   144
32.5141   163
32.5241   160
32.5341   163
32.5441   147
32.5541   143
32.5641   168
32.5741   137
32.5841   134
32.5941   153
32.6041   158
32.6141   159
32.6241   147
32.6341   144
32.6441   168
32.6541   163
32.6641   152
32.6741   152
32.6841   162
32.6941   164
32.7041   160
32.7141   143
32.7241   140
32.7341   172
32.7441   174
32.7541   164
32.7641   155
32.7741   149
32.7841   140
32.7941   135
32.8041   153
32.8141   150
32.8241   147
32.8341   149
32.8441   144
32.8541   147
32.8641   147
32.8741   161
32.8841   150
32.8941   134
32.9041   140
32.9141   135
32.9241   163
32.9341   141
32.9441   136
32.9541   158
32.9641   135
32.9741   146
32.9841   156
32.9941   125
33.0041   123
33.0141   146
33.0241   148
33.0341   145
33.0441   127
33.0541   130
33.0641   141
33.0741   139
33.0841   135
33.0941   133
33.1041   136
33.1141   163
33.1241   129
33.1341   143
33.1441   136
33.1541   146
33.1641   146
33.1741   171
33.1841   139
33.1941   129
33.2041   132
33.2141   153
33.2241   150
33.2341   116
33.2441   130
33.2541   151
33.2641   132
33.2741   139
33.2841   137
33.2941   116
33.3041   139
33.3141   108
33.3241   128
33.3341   136
33.3441   127
33.3541   125
33.3641   136
33.3741   113
33.3841   152
33.3941   139
33.4041   129
33.4141   124
33.4241   136
33.4341   147
33.4441   141
33.4541   123
33.4641   109
33.4741   127
33.4841   135
33.4941   126
33.5041   125
33.5141   143
33.5241   132
33.5341   139
33.5441   122
33.5541   141
33.5641   120
33.5741   111
33.5841   131
33.5941   130
33.6041   105
33.6141   128
33.6241   128
33.6341   135
33.6441   126
33.6541   133
33.6641   145
33.6741   132
33.6841   106
33.6941   138
33.7041    99
33.7141   129
33.7241   136
33.7341   122
33.7441   117
33.7541   125
33.7641   145
33.7741   113
33.7841   125
33.7941   122
33.8041   140
33.8141   107
33.8241   130
33.8341   145
33.8441   112
33.8541    99
33.8641   116
33.8741   111
33.8841   116
33.8941   117
33.9041   118
33.9141   129
33.9241   121
33.9341   122
33.9441   118
33.9541   115
33.9641   111
33.9741   111
33.9841   132
33.9941   117
34.0041   130
34.0141   122
34.0241   116
34.0341   113
34.0441   112
34.0541   114
34.0641   113
34.0741   116
34.0841   113
34.0941   116
34.1041   107
34.1141   131
34.1241   114
34.1341   114
34.1441   100
34.1541   107
34.1641   105
34.1741    93
34.1841   125
34.1941   118
34.2041   124
34.2141   117
34.2241   114
34.2341   112
34.2441   117
34.2541   109
34.2641   126
34.2741   127
34.2841   112
34.2941   114
34.3041   100
34.3141   112
34.3241    98
34.3341   122
34.3441   119
34.3541   105
34.3641   117
34.3741   104
34.3841   115
34.3941   100
34.4041   112
34.4141   126
34.4241    89
34.4341    93
34.4441   108
34.4541   110
34.4641   119
34.4741   103
34.4841   116
34.4941   116
34.5041   114
34.5141    95
34.5241    95
34.5341   114
34.5441   116
34.5541   101
34.5641   110
34.5741   112
34.5841   129
34.5941   109
34.6041   103
34.6141    96
34.6241   103
34.6341   100
34.6441   113
34.6541    93
34.6641   113
34.6741    88
34.6841   100
34.6941   100
34.7041   115
34.7141   102
34.7241   100
34.7341   106
34.7441   120
34.7541   107
34.7641   102
34.7741   119
34.7841    98
34.7941   102
34.8041   101
34.8141   129
34.8241    93
34.8341    99
34.8441   101
34.8541   103
34.8641   102
34.8741    79
34.8841    78
34.8941    93
34.9041    97
34.9141    95
34.9241    83
34.9341   104
34.9441   104
34.9541    92
34.9641    90
34.9741    89
34.9841    83
34.9941   104
35.0041    89
35.0141   101
35.0241    99
35.0341   115
35.0441    86
35.0541   111
35.0641    86
35.0741   107
35.0841   108
35.0941    78
35.1041   102
35.1141    92
35.1241   102
35.1341    98
35.1441    90
35.1541    87
35.1641   101
35.1741    88
35.1841    98
35.1941    93
35.2041    94
35.2141   102
35.2241    98
35.2341    91
35.2441    90
35.2541    86
35.2641    90
35.2741    84
35.2841   100
35.2941    81
35.3041    94
35.3141    96
35.3241    80
35.3341    92
35.3441   107
35.3541    94
35.3641    89
35.3741    95
35.3841    83
35.3941    94
35.4041    81
35.4141    84
35.4241   110
35.4341    79
35.4441    77
35.4541    84
35.4641    89
35.4741    68
35.4841    85
35.4941    86
35.5041    87
35.5141    67
35.5241    69
35.5341   102
35.5441    91
35.5541    64
35.5641    93
35.5741    88
35.5841   104
35.5941    98
35.6041    77
35.6141    77
35.6241    93
35.6341    85
35.6441    88
35.6541    84
35.6641    83
35.6741    79
35.6841    84
35.6941    74
35.7041    95
35.7141    91
35.7241   102
35.7341    79
35.7441    83
35.7541    82
35.7641    74
35.7741    76
35.7841    98
35.7941    84
35.8041    80
35.8141    77
35.8241    70
35.8341    66
35.8441    86
35.8541    71
35.8641    63
35.8741    89
35.8841    83
35.8941    83
35.9041    90
35.9141    83
35.9241    79
35.9341    75
35.9441    67
35.9541    83
35.9641    86
35.9741    84
35.9841    74
35.9941    78
36.0041    78
36.0141    78
36.0241    69
36.0341    78
36.0441    63
36.0541    62
36.0641    79
36.0741    76
36.0841    90
36.0941    71
36.1041    69
36.1141    73
36.1241    66
36.1341    80
36.1441    77
36.1541    88
36.1641    71
36.1741    72
36.1841    79
36.1941    66
36.2041    74
36.2141    80
36.2241    72
36.2341    76
36.2441    76
36.2541    81
36.2641    76
36.2741    70
36.2841    84
36.2941    69
36.3041    77
36.3141    79
36.3241    87
36.3341    73
36.3441    76
36.3541    65
36.3641    77
36.3741    79
36.3841    73
36.3941    87
36.4041    73
36.4141    92
36.4241    79
36.4341    77
36.4441    78
36.4541    61
36.4641    75
36.4741    68
36.4841    74
36.4941    70
36.5041    59
36.5141    71
36.5241    61
36.5341    53
36.5441    64
36.5541    78
36.5641    68
36.5741    87
36.5841    61
36.5941    78
36.6041    69
36.6141    70
36.6241    71
36.6341    76
36.6441    75
36.6541    61
36.6641    64
36.6741    56
36.6841    72
36.6941    73
36.7041    68
36.7141    72
36.7241    68
36.7341    59
36.7441    66
36.7541    73
36.7641    65
36.7741    60
36.7841    67
36.7941    69
36.8041    72
36.8141    73
36.8241    70
36.8341    62
36.8441    63
36.8541    46
36.8641    60
36.8741    69
36.8841    54
36.8941    59
36.9041    59
36.9141    81
36.9241    65
36.9341    41
36.9441    54
36.9541    60
36.9641    72
36.9741    73
36.9841    64
36.9941    61
37.0041    70
37.0141    66
37.0241    55
37.0341    66
37.0441    52
37.0541    75
37.0641    66
37.0741    55
37.0841    70
37.0941    51
37.1041    45
37.1141    51
37.1241    45
37.1341    49
37.1441    62
37.1541    55
37.1641    59
37.1741    62
37.1841    58
37.1941    55
37.2041    51
37.2141    65
37.2241    68
37.2341    53
37.2441    59
37.2541    55
37.2641    55
37.2741    61
37.2841    54
37.2941    51
37.3041    51
37.3141    62
37.3241    41
37.3341    64
37.3441    61
37.3541    63
37.3641    53
37.3741    55
37.3841    73
37.3941    58
37.4041    59
37.4141    42
37.4241    53
37.4341    54
37.4441    60
37.4541    53
37.4641    48
37.4741    62
37.4841    54
37.4941    53
37.5041    56
37.5141    47
37.5241    50
37.5341    48
37.5441    62
37.5541    52
37.5641    65
37.5741    57
37.5841    45
37.5941    47
37.6041    50
37.6141    55
37.6241    48
37.6341    61
37.6441    53
37.6541    49
37.6641    58
37.6741    57
37.6841    34
37.6941    46
37.7041    57
37.7141    59
37.7241    43
37.7341    45
37.7441    56
37.7541    50
37.7641    69
37.7741    45
37.7841    53
37.7941    54
37.8041    51
37.8141    54
37.8241    56
37.8341    55
37.8441    51
37.8541    54
37.8641    57
37.8741    43
37.8841    58
37.8941    46
37.9041    48
37.9141    51
37.9241    49
37.9341    44
37.9441    42
37.9541    45
37.9641    45
37.9741    55
37.9841    49
37.9941    40
38.0041    46
38.0141    46
38.0241    43
38.0341    47
38.0441    54
38.0541    43
38.0641    43
38.0741    41
38.0841    52
38.0941    49
38.1041    37
38.1141    40
38.1241    44
38.1341    49
38.1441    54
38.1541    41
38.1641    40
38.1741    42
38.1841    37
38.1941    50
38.2041    40
38.2141    44
38.2241    38
38.2341    52
38.2441    37
38.2541    39
38.2641    43
38.2741    52
38.2841    52
38.2941    41
38.3041    45
38.3141    47
38.3241    40
38.3341    46
38.3441    42
38.3541    43
38.3641    47
38.3741    45
38.3841    39
38.3941    47
38.4041    35
38.4141    37
38.4241    54
38.4341    48
38.4441    46
38.4541    47
38.4641    42
38.4741    45
38.4841    34
38.4941    38
38.5041    41
38.5141    25
38.5241    39
38.5341    35
38.5441    46
38.5541    44
38.5641    39
38.5741    26
38.5841    37
38.5941    39
38.6041    49
38.6141    35
38.6241    43
38.6341    42
38.6441    37
38.6541    42
38.6641    45
38.6741    38
38.6841    43
38.6941    39
38.7041    38
38.7141    38
38.7241    35
38.7341    54
38.7441    39
38.7541    35
38.7641    40
38.7741    35
38.7841    37
38.7941    35
38.8041    31
38.8141    38
38.8241    42
38.8341    26
38.8441    39
38.8541    35
38.8641    50
38.8741    44
38.8841    48
38.8941    32
38.9041    30
38.9141    49
38.9241    35
38.9341    34
38.9441    34
38.9541    39
38.9641    30
38.9741    29
38.9841    29
38.9941    34
39.0041    35
39.0141    37
39.0241    32
39.0341    24
39.0441    37
39.0541    30
39.0641    31
39.0741    39
39.0841    46
39.0941    37
39.1041    31
39.1141    23
39.1241    40
39.1341    25
39.1441    32
39.1541    35
39.1641    38
39.1741    32
39.1841    37
39.1941    35
39.2041    44
39.2141    44
39.2241    23
39.2341    28
39.2441    36
39.2541    33
39.2641    24
39.2741    36
39.2841    25
39.2941    29
39.3041    35
39.3141    39
39.3241    24
39.3341    38
39.3441    30
39.3541    25
39.3641    32
39.3741    28
39.3841    30
39.3941    35
39.4041    27
39.4141    27
39.4241    31
39.4341    25
39.4441    33
39.4541    25
39.4641    28
39.4741    28
39.4841    35
39.4941    30
39.5041    33
39.5141    22
39.5241    25
39.5341    32
39.5441    27
39.5541    28
39.5641    27
39.5741    23
39.5841    18
39.5941    25
39.6041    35
39.6141    30
39.6241    22
39.6341    25
39.6441    29
39.6541    39
39.6641    16
39.6741    28
39.6841    21
39.6941    35
39.7041    22
39.7141    32
39.7241    33
39.7341    25
39.7441    31
39.7541    27
39.7641    29
39.7741    25
39.7841    25
39.7941    24
39.8041    25
39.8141    27
39.8241    25
39.8341    24
39.8441    24
39.8541    28
39.8641    26
39.8741    34
39.8841    27
39.8941    23
39.9041    24
39.9141    20
39.9241    28
39.9341    29
39.9441    25
39.9541    24
39.9641    32
39.9741    31
39.9841    13
