Bruker Nano GmbH Berlin, Germany
Esprit 1.9

Date: 4/1/2021 4:57:05 PM
Real time: 19801
Life time: 18238
Pulse density: 114309


Detector type: XFlash 430
Window type: Custom type
Detector thickness: 0.45
Si dead layer:0.029

Calibration, lin.: 10
Calibration, abs.: -955.9
Mn FWHM: 137.05
Fano factor: 0.121
Channels: 4096

Energy Counts
-0.9559     0
-0.9459     0
-0.9359     0
-0.9259     0
-0.9159     0
-0.9059     0
-0.8959     0
-0.8859     0
-0.8759     0
-0.8659     0
-0.8559     0
-0.8459     0
-0.8359     0
-0.8259     0
-0.8159     0
-0.8059     0
-0.7959     0
-0.7859     0
-0.7759     0
-0.7659     0
-0.7559     0
-0.7459     0
-0.7359     0
-0.7259     0
-0.7159     0
-0.7059     0
-0.6959     0
-0.6859     0
-0.6759     0
-0.6659     0
-0.6559     0
-0.6459     0
-0.6359     0
-0.6259     0
-0.6159     0
-0.6059     0
-0.5959     0
-0.5859     0
-0.5759     0
-0.5659     0
-0.5559     0
-0.5459     0
-0.5359     0
-0.5259     0
-0.5159     0
-0.5059     0
-0.4959     0
-0.4859     0
-0.4759     0
-0.4659     0
-0.4559     0
-0.4459     0
-0.4359     0
-0.4259     0
-0.4159     0
-0.4059     0
-0.3959     0
-0.3859     0
-0.3759     0
-0.3659     0
-0.3559     0
-0.3459     0
-0.3359     0
-0.3259     0
-0.3159     0
-0.3059     0
-0.2959     0
-0.2859     0
-0.2759     0
-0.2659     0
-0.2559     0
-0.2459     0
-0.2359     0
-0.2259     0
-0.2159     0
-0.2059     0
-0.1959     0
-0.1859     0
-0.1759     0
-0.1659     0
-0.1559     0
-0.1459     0
-0.1359     1
-0.1259     0
-0.1159     3
-0.1059    14
-0.0959    55
-0.0859   182
-0.0759   772
-0.0659  2109
-0.0559  5304
-0.0459 11572
-0.0359 21525
-0.0259 34495
-0.0159 47542
-0.0059 55763
 0.0041 56398
 0.0141 48589
 0.0241 35760
 0.0341 22772
 0.0441 12275
 0.0541  5709
 0.0641  2420
 0.0741   770
 0.0841   244
 0.0941    66
 0.1041    25
 0.1141    18
 0.1241     5
 0.1341    12
 0.1441     9
 0.1541    11
 0.1641     7
 0.1741    26
 0.1841   198
 0.1941   388
 0.2041   350
 0.2141   342
 0.2241   326
 0.2341   348
 0.2441   344
 0.2541   342
 0.2641   342
 0.2741   357
 0.2841   363
 0.2941   335
 0.3041   313
 0.3141   299
 0.3241   293
 0.3341   338
 0.3441   337
 0.3541   322
 0.3641   320
 0.3741   316
 0.3841   312
 0.3941   312
 0.4041   315
 0.4141   281
 0.4241   311
 0.4341   304
 0.4441   307
 0.4541   297
 0.4641   299
 0.4741   284
 0.4841   289
 0.4941   297
 0.5041   302
 0.5141   291
 0.5241   308
 0.5341   304
 0.5441   284
 0.5541   286
 0.5641   269
 0.5741   264
 0.5841   258
 0.5941   263
 0.6041   281
 0.6141   261
 0.6241   265
 0.6341   264
 0.6441   260
 0.6541   274
 0.6641   291
 0.6741   258
 0.6841   238
 0.6941   259
 0.7041   272
 0.7141   279
 0.7241   265
 0.7341   263
 0.7441   254
 0.7541   240
 0.7641   247
 0.7741   247
 0.7841   246
 0.7941   247
 0.8041   258
 0.8141   269
 0.8241   255
 0.8341   233
 0.8441   241
 0.8541   249
 0.8641   238
 0.8741   248
 0.8841   228
 0.8941   239
 0.9041   252
 0.9141   246
 0.9241   208
 0.9341   214
 0.9441   222
 0.9541   260
 0.9641   251
 0.9741   242
 0.9841   231
 0.9941   224
 1.0041   224
 1.0141   214
 1.0241   229
 1.0341   229
 1.0441   221
 1.0541   218
 1.0641   238
 1.0741   231
 1.0841   216
 1.0941   225
 1.1041   231
 1.1141   200
 1.1241   220
 1.1341   239
 1.1441   217
 1.1541   202
 1.1641   208
 1.1741   210
 1.1841   212
 1.1941   215
 1.2041   222
 1.2141   219
 1.2241   206
 1.2341   212
 1.2441   219
 1.2541   228
 1.2641   208
 1.2741   207
 1.2841   222
 1.2941   216
 1.3041   199
 1.3141   191
 1.3241   186
 1.3341   200
 1.3441   194
 1.3541   198
 1.3641   227
 1.3741   223
 1.3841   187
 1.3941   190
 1.4041   199
 1.4141   195
 1.4241   185
 1.4341   192
 1.4441   186
 1.4541   197
 1.4641   191
 1.4741   175
 1.4841   182
 1.4941   194
 1.5041   208
 1.5141   202
 1.5241   205
 1.5341   218
 1.5441   198
 1.5541   187
 1.5641   171
 1.5741   195
 1.5841   193
 1.5941   186
 1.6041   185
 1.6141   186
 1.6241   173
 1.6341   199
 1.6441   193
 1.6541   211
 1.6641   287
 1.6741   325
 1.6841   386
 1.6941   484
 1.7041   560
 1.7141   637
 1.7241   739
 1.7341   796
 1.7441   815
 1.7541   765
 1.7641   644
 1.7741   547
 1.7841   474
 1.7941   386
 1.8041   353
 1.8141   273
 1.8241   254
 1.8341   237
 1.8441   240
 1.8541   237
 1.8641   216
 1.8741   190
 1.8841   191
 1.8941   165
 1.9041   183
 1.9141   182
 1.9241   198
 1.9341   190
 1.9441   176
 1.9541   211
 1.9641   210
 1.9741   230
 1.9841   229
 1.9941   227
 2.0041   263
 2.0141   235
 2.0241   224
 2.0341   252
 2.0441   235
 2.0541   202
 2.0641   186
 2.0741   187
 2.0841   189
 2.0941   187
 2.1041   157
 2.1141   168
 2.1241   180
 2.1341   191
 2.1441   169
 2.1541   168
 2.1641   172
 2.1741   181
 2.1841   156
 2.1941   179
 2.2041   146
 2.2141   169
 2.2241   148
 2.2341   162
 2.2441   149
 2.2541   157
 2.2641   155
 2.2741   133
 2.2841   158
 2.2941   160
 2.3041   149
 2.3141   145
 2.3241   158
 2.3341   150
 2.3441   151
 2.3541   158
 2.3641   143
 2.3741   152
 2.3841   157
 2.3941   140
 2.4041   140
 2.4141   141
 2.4241   153
 2.4341   149
 2.4441   160
 2.4541   139
 2.4641   160
 2.4741   129
 2.4841   161
 2.4941   150
 2.5041   145
 2.5141   140
 2.5241   152
 2.5341   149
 2.5441   121
 2.5541   129
 2.5641   123
 2.5741   160
 2.5841   150
 2.5941   153
 2.6041   150
 2.6141   141
 2.6241   152
 2.6341   145
 2.6441   165
 2.6541   150
 2.6641   128
 2.6741   149
 2.6841   153
 2.6941   114
 2.7041   139
 2.7141   136
 2.7241   133
 2.7341   139
 2.7441   132
 2.7541   136
 2.7641   149
 2.7741   140
 2.7841   139
 2.7941   130
 2.8041   147
 2.8141   148
 2.8241   138
 2.8341   150
 2.8441   145
 2.8541   138
 2.8641   127
 2.8741   153
 2.8841   139
 2.8941   120
 2.9041   133
 2.9141   116
 2.9241   143
 2.9341   145
 2.9441   115
 2.9541   130
 2.9641   134
 2.9741   114
 2.9841   118
 2.9941   128
 3.0041   120
 3.0141   142
 3.0241   124
 3.0341   107
 3.0441   117
 3.0541   118
 3.0641    99
 3.0741    98
 3.0841   115
 3.0941   105
 3.1041   106
 3.1141   113
 3.1241   111
 3.1341   113
 3.1441   114
 3.1541   100
 3.1641   106
 3.1741   115
 3.1841   112
 3.1941    96
 3.2041    95
 3.2141    92
 3.2241   114
 3.2341   119
 3.2441   119
 3.2541   130
 3.2641   130
 3.2741   120
 3.2841   129
 3.2941   136
 3.3041   156
 3.3141   143
 3.3241   101
 3.3341   127
 3.3441   124
 3.3541   118
 3.3641   114
 3.3741   129
 3.3841    91
 3.3941   123
 3.4041   111
 3.4141   110
 3.4241   100
 3.4341    88
 3.4441    97
 3.4541   106
 3.4641    93
 3.4741   113
 3.4841   100
 3.4941   110
 3.5041   101
 3.5141   101
 3.5241   114
 3.5341   108
 3.5441   138
 3.5541   180
 3.5641   244
 3.5741   287
 3.5841   368
 3.5941   495
 3.6041   631
 3.6141   852
 3.6241  1126
 3.6341  1421
 3.6441  1734
 3.6541  2023
 3.6641  2244
 3.6741  2443
 3.6841  2577
 3.6941  2533
 3.7041  2463
 3.7141  2286
 3.7241  2113
 3.7341  1765
 3.7441  1413
 3.7541  1117
 3.7641   863
 3.7741   651
 3.7841   461
 3.7941   348
 3.8041   259
 3.8141   181
 3.8241   131
 3.8341   127
 3.8441   122
 3.8541   117
 3.8641   111
 3.8741   129
 3.8841   120
 3.8941   156
 3.9041   154
 3.9141   168
 3.9241   211
 3.9341   243
 3.9441   288
 3.9541   293
 3.9641   393
 3.9741   419
 3.9841   507
 3.9941   525
 4.0041   515
 4.0141   539
 4.0241   542
 4.0341   504
 4.0441   470
 4.0541   466
 4.0641   366
 4.0741   304
 4.0841   256
 4.0941   194
 4.1041   180
 4.1141   147
 4.1241   106
 4.1341   104
 4.1441    94
 4.1541    88
 4.1641    97
 4.1741    84
 4.1841    81
 4.1941    75
 4.2041    91
 4.2141    89
 4.2241    75
 4.2341    78
 4.2441    70
 4.2541    78
 4.2641    74
 4.2741    78
 4.2841    76
 4.2941    76
 4.3041    82
 4.3141    84
 4.3241    67
 4.3341    75
 4.3441    85
 4.3541    84
 4.3641    67
 4.3741    73
 4.3841    85
 4.3941    84
 4.4041   116
 4.4141   118
 4.4241   113
 4.4341   127
 4.4441   149
 4.4541   155
 4.4641   199
 4.4741   212
 4.4841   192
 4.4941   217
 4.5041   203
 4.5141   190
 4.5241   182
 4.5341   178
 4.5441   190
 4.5541   152
 4.5641   159
 4.5741   144
 4.5841   126
 4.5941   101
 4.6041   101
 4.6141   116
 4.6241    95
 4.6341   101
 4.6441    80
 4.6541   108
 4.6641    73
 4.6741    96
 4.6841    89
 4.6941    76
 4.7041    76
 4.7141    86
 4.7241    78
 4.7341   100
 4.7441    95
 4.7541    64
 4.7641    65
 4.7741    75
 4.7841    73
 4.7941    74
 4.8041    69
 4.8141    68
 4.8241    76
 4.8341    87
 4.8441    83
 4.8541    69
 4.8641    98
 4.8741    96
 4.8841   112
 4.8941   124
 4.9041   108
 4.9141   105
 4.9241   121
 4.9341   136
 4.9441   104
 4.9541   116
 4.9641   130
 4.9741   107
 4.9841   110
 4.9941   103
 5.0041   106
 5.0141    75
 5.0241   110
 5.0341    87
 5.0441    95
 5.0541    84
 5.0641    86
 5.0741    80
 5.0841    86
 5.0941    87
 5.1041    86
 5.1141    94
 5.1241   101
 5.1341    85
 5.1441    84
 5.1541    72
 5.1641    71
 5.1741    73
 5.1841    86
 5.1941    83
 5.2041    72
 5.2141    66
 5.2241    97
 5.2341    78
 5.2441    88
 5.2541    81
 5.2641   103
 5.2741   105
 5.2841   104
 5.2941    95
 5.3041    96
 5.3141    99
 5.3241   117
 5.3341   121
 5.3441   137
 5.3541   140
 5.3641   130
 5.3741   144
 5.3841   156
 5.3941   152
 5.4041   177
 5.4141   196
 5.4241   159
 5.4341   168
 5.4441   163
 5.4541   155
 5.4641   156
 5.4741   156
 5.4841   124
 5.4941   115
 5.5041   116
 5.5141   121
 5.5241   101
 5.5341   105
 5.5441   101
 5.5541    84
 5.5641    85
 5.5741   113
 5.5841   113
 5.5941    94
 5.6041    88
 5.6141    85
 5.6241    89
 5.6341    87
 5.6441   125
 5.6541   101
 5.6641   103
 5.6741    81
 5.6841   117
 5.6941    95
 5.7041   108
 5.7141    87
 5.7241   109
 5.7341   111
 5.7441   110
 5.7541   115
 5.7641   122
 5.7741   132
 5.7841   138
 5.7941   144
 5.8041   181
 5.8141   176
 5.8241   213
 5.8341   248
 5.8441   265
 5.8541   257
 5.8641   298
 5.8741   303
 5.8841   323
 5.8941   307
 5.9041   306
 5.9141   323
 5.9241   310
 5.9341   295
 5.9441   274
 5.9541   249
 5.9641   220
 5.9741   203
 5.9841   186
 5.9941   174
 6.0041   163
 6.0141   147
 6.0241   138
 6.0341   129
 6.0441   128
 6.0541   110
 6.0641   117
 6.0741   143
 6.0841   161
 6.0941   159
 6.1041   128
 6.1141   155
 6.1241   151
 6.1341   147
 6.1441   161
 6.1541   154
 6.1641   164
 6.1741   185
 6.1841   194
 6.1941   226
 6.2041   255
 6.2141   370
 6.2241   432
 6.2341   546
 6.2441   755
 6.2541   982
 6.2641  1442
 6.2741  1923
 6.2841  2500
 6.2941  3336
 6.3041  4272
 6.3141  5296
 6.3241  6566
 6.3341  7887
 6.3441  9301
 6.3541 10497
 6.3641 11468
 6.3741 12659
 6.3841 13270
 6.3941 13542
 6.4041 13546
 6.4141 13146
 6.4241 12250
 6.4341 11467
 6.4441 10146
 6.4541  8685
 6.4641  7489
 6.4741  6137
 6.4841  4971
 6.4941  3850
 6.5041  2948
 6.5141  2194
 6.5241  1644
 6.5341  1170
 6.5441   833
 6.5541   641
 6.5641   473
 6.5741   350
 6.5841   257
 6.5941   261
 6.6041   187
 6.6141   203
 6.6241   203
 6.6341   163
 6.6441   175
 6.6541   180
 6.6641   145
 6.6741   183
 6.6841   170
 6.6941   200
 6.7041   182
 6.7141   188
 6.7241   179
 6.7341   167
 6.7441   183
 6.7541   182
 6.7641   184
 6.7741   178
 6.7841   176
 6.7941   185
 6.8041   175
 6.8141   198
 6.8241   224
 6.8341   227
 6.8441   238
 6.8541   260
 6.8641   229
 6.8741   261
 6.8841   310
 6.8941   379
 6.9041   396
 6.9141   458
 6.9241   518
 6.9341   607
 6.9441   752
 6.9541   886
 6.9641  1059
 6.9741  1181
 6.9841  1448
 6.9941  1696
 7.0041  1858
 7.0141  2041
 7.0241  2199
 7.0341  2274
 7.0441  2385
 7.0541  2350
 7.0641  2384
 7.0741  2336
 7.0841  2199
 7.0941  2002
 7.1041  1737
 7.1141  1626
 7.1241  1423
 7.1341  1158
 7.1441   968
 7.1541   818
 7.1641   762
 7.1741   608
 7.1841   490
 7.1941   443
 7.2041   366
 7.2141   348
 7.2241   325
 7.2341   323
 7.2441   275
 7.2541   275
 7.2641   271
 7.2741   304
 7.2841   315
 7.2941   307
 7.3041   298
 7.3141   264
 7.3241   323
 7.3341   294
 7.3441   345
 7.3541   340
 7.3641   380
 7.3741   339
 7.3841   373
 7.3941   381
 7.4041   397
 7.4141   419
 7.4241   378
 7.4341   409
 7.4441   406
 7.4541   395
 7.4641   372
 7.4741   383
 7.4841   384
 7.4941   343
 7.5041   336
 7.5141   349
 7.5241   318
 7.5341   308
 7.5441   314
 7.5541   327
 7.5641   317
 7.5741   296
 7.5841   256
 7.5941   265
 7.6041   279
 7.6141   305
 7.6241   264
 7.6341   259
 7.6441   287
 7.6541   305
 7.6641   278
 7.6741   284
 7.6841   295
 7.6941   295
 7.7041   348
 7.7141   305
 7.7241   323
 7.7341   359
 7.7441   307
 7.7541   349
 7.7641   330
 7.7741   345
 7.7841   347
 7.7941   355
 7.8041   368
 7.8141   372
 7.8241   364
 7.8341   371
 7.8441   365
 7.8541   441
 7.8641   457
 7.8741   389
 7.8841   455
 7.8941   526
 7.9041   511
 7.9141   552
 7.9241   544
 7.9341   572
 7.9441   623
 7.9541   675
 7.9641   714
 7.9741   737
 7.9841   799
 7.9941   905
 8.0041   982
 8.0141  1086
 8.0241  1177
 8.0341  1190
 8.0441  1352
 8.0541  1400
 8.0641  1516
 8.0741  1582
 8.0841  1716
 8.0941  1768
 8.1041  1977
 8.1141  2054
 8.1241  2166
 8.1341  2148
 8.1441  2283
 8.1541  2255
 8.1641  2311
 8.1741  2376
 8.1841  2408
 8.1941  2460
 8.2041  2407
 8.2141  2402
 8.2241  2414
 8.2341  2410
 8.2441  2390
 8.2541  2422
 8.2641  2470
 8.2741  2555
 8.2841  2618
 8.2941  2769
 8.3041  2865
 8.3141  2973
 8.3241  3188
 8.3341  3334
 8.3441  3637
 8.3541  3625
 8.3641  3754
 8.3741  3841
 8.3841  3788
 8.3941  3873
 8.4041  3735
 8.4141  3536
 8.4241  3359
 8.4341  3074
 8.4441  2810
 8.4541  2541
 8.4641  2267
 8.4741  1954
 8.4841  1775
 8.4941  1545
 8.5041  1247
 8.5141  1081
 8.5241   902
 8.5341   787
 8.5441   708
 8.5541   621
 8.5641   564
 8.5741   521
 8.5841   498
 8.5941   507
 8.6041   481
 8.6141   495
 8.6241   479
 8.6341   441
 8.6441   468
 8.6541   476
 8.6641   462
 8.6741   466
 8.6841   510
 8.6941   454
 8.7041   452
 8.7141   423
 8.7241   446
 8.7341   452
 8.7441   453
 8.7541   455
 8.7641   454
 8.7741   432
 8.7841   428
 8.7941   422
 8.8041   434
 8.8141   414
 8.8241   409
 8.8341   433
 8.8441   454
 8.8541   415
 8.8641   438
 8.8741   469
 8.8841   470
 8.8941   473
 8.9041   439
 8.9141   458
 8.9241   518
 8.9341   507
 8.9441   496
 8.9541   484
 8.9641   533
 8.9741   520
 8.9841   554
 8.9941   526
 9.0041   546
 9.0141   611
 9.0241   606
 9.0341   633
 9.0441   629
 9.0541   654
 9.0641   622
 9.0741   698
 9.0841   714
 9.0941   705
 9.1041   766
 9.1141   797
 9.1241   845
 9.1341   861
 9.1441   931
 9.1541   977
 9.1641   964
 9.1741  1068
 9.1841  1045
 9.1941  1170
 9.2041  1266
 9.2141  1351
 9.2241  1377
 9.2341  1492
 9.2441  1580
 9.2541  1648
 9.2641  1736
 9.2741  1841
 9.2841  1827
 9.2941  1928
 9.3041  2062
 9.3141  2080
 9.3241  2183
 9.3341  2182
 9.3441  2214
 9.3541  2371
 9.3641  2345
 9.3741  2414
 9.3841  2439
 9.3941  2441
 9.4041  2404
 9.4141  2432
 9.4241  2474
 9.4341  2525
 9.4441  2499
 9.4541  2495
 9.4641  2578
 9.4741  2547
 9.4841  2516
 9.4941  2569
 9.5041  2660
 9.5141  2544
 9.5241  2629
 9.5341  2699
 9.5441  2814
 9.5541  2938
 9.5641  3062
 9.5741  3036
 9.5841  3212
 9.5941  3412
 9.6041  3459
 9.6141  3531
 9.6241  3752
 9.6341  3818
 9.6441  3956
 9.6541  3987
 9.6641  3983
 9.6741  3882
 9.6841  3796
 9.6941  3728
 9.7041  3568
 9.7141  3420
 9.7241  3199
 9.7341  2982
 9.7441  2826
 9.7541  2584
 9.7641  2394
 9.7741  2237
 9.7841  2046
 9.7941  1952
 9.8041  1790
 9.8141  1678
 9.8241  1633
 9.8341  1537
 9.8441  1542
 9.8541  1533
 9.8641  1538
 9.8741  1483
 9.8841  1472
 9.8941  1515
 9.9041  1523
 9.9141  1582
 9.9241  1647
 9.9341  1619
 9.9441  1602
 9.9541  1569
 9.9641  1556
 9.9741  1559
 9.9841  1430
 9.9941  1398
10.0041  1285
10.0141  1283
10.0241  1170
10.0341  1092
10.0441   985
10.0541   883
10.0641   793
10.0741   723
10.0841   673
10.0941   574
10.1041   549
10.1141   489
10.1241   441
10.1341   421
10.1441   404
10.1541   376
10.1641   375
10.1741   341
10.1841   334
10.1941   324
10.2041   313
10.2141   287
10.2241   300
10.2341   292
10.2441   285
10.2541   274
10.2641   288
10.2741   290
10.2841   280
10.2941   285
10.3041   258
10.3141   259
10.3241   254
10.3341   253
10.3441   265
10.3541   276
10.3641   269
10.3741   274
10.3841   271
10.3941   268
10.4041   278
10.4141   272
10.4241   276
10.4341   257
10.4441   284
10.4541   267
10.4641   277
10.4741   262
10.4841   296
10.4941   288
10.5041   285
10.5141   297
10.5241   281
10.5341   302
10.5441   303
10.5541   290
10.5641   309
10.5741   328
10.5841   327
10.5941   312
10.6041   323
10.6141   326
10.6241   329
10.6341   319
10.6441   335
10.6541   339
10.6641   326
10.6741   345
10.6841   348
10.6941   355
10.7041   367
10.7141   380
10.7241   406
10.7341   415
10.7441   433
10.7541   444
10.7641   446
10.7741   460
10.7841   475
10.7941   477
10.8041   483
10.8141   528
10.8241   521
10.8341   502
10.8441   525
10.8541   530
10.8641   529
10.8741   547
10.8841   537
10.8941   556
10.9041   556
10.9141   572
10.9241   559
10.9341   541
10.9441   552
10.9541   533
10.9641   576
10.9741   570
10.9841   521
10.9941   535
11.0041   515
11.0141   487
11.0241   499
11.0341   510
11.0441   473
11.0541   475
11.0641   482
11.0741   452
11.0841   465
11.0941   483
11.1041   481
11.1141   461
11.1241   438
11.1341   492
11.1441   491
11.1541   476
11.1641   482
11.1741   507
11.1841   533
11.1941   524
11.2041   560
11.2141   593
11.2241   586
11.2341   579
11.2441   613
11.2541   594
11.2641   620
11.2741   668
11.2841   650
11.2941   619
11.3041   619
11.3141   612
11.3241   594
11.3341   588
11.3441   538
11.3541   516
11.3641   519
11.3741   480
11.3841   444
11.3941   456
11.4041   411
11.4141   438
11.4241   418
11.4341   380
11.4441   348
11.4541   340
11.4641   372
11.4741   354
11.4841   352
11.4941   344
11.5041   358
11.5141   340
11.5241   340
11.5341   363
11.5441   336
11.5541   341
11.5641   333
11.5741   361
11.5841   365
11.5941   359
11.6041   353
11.6141   360
11.6241   346
11.6341   352
11.6441   368
11.6541   371
11.6641   384
11.6741   377
11.6841   399
11.6941   380
11.7041   393
11.7141   429
11.7241   424
11.7341   406
11.7441   425
11.7541   431
11.7641   489
11.7741   522
11.7841   548
11.7941   603
11.8041   639
11.8141   708
11.8241   764
11.8341   790
11.8441   808
11.8541   879
11.8641   937
11.8741   955
11.8841   976
11.8941  1037
11.9041  1037
11.9141  1038
11.9241   996
11.9341   979
11.9441   989
11.9541   934
11.9641   873
11.9741   811
11.9841   776
11.9941   725
12.0041   648
12.0141   588
12.0241   552
12.0341   527
12.0441   470
12.0541   431
12.0641   387
12.0741   354
12.0841   329
12.0941   324
12.1041   312
12.1141   295
12.1241   289
12.1341   294
12.1441   301
12.1541   294
12.1641   290
12.1741   271
12.1841   262
12.1941   267
12.2041   285
12.2141   270
12.2241   263
12.2341   249
12.2441   247
12.2541   269
12.2641   271
12.2741   273
12.2841   258
12.2941   267
12.3041   277
12.3141   265
12.3241   260
12.3341   271
12.3441   265
12.3541   277
12.3641   288
12.3741   276
12.3841   280
12.3941   297
12.4041   278
12.4141   269
12.4241   286
12.4341   278
12.4441   278
12.4541   287
12.4641   274
12.4741   259
12.4841   263
12.4941   294
12.5041   284
12.5141   267
12.5241   288
12.5341   295
12.5441   295
12.5541   303
12.5641   286
12.5741   303
12.5841   315
12.5941   290
12.6041   296
12.6141   301
12.6241   304
12.6341   311
12.6441   317
12.6541   316
12.6641   293
12.6741   307
12.6841   320
12.6941   308
12.7041   305
12.7141   309
12.7241   314
12.7341   318
12.7441   323
12.7541   301
12.7641   299
12.7741   312
12.7841   318
12.7941   324
12.8041   317
12.8141   303
12.8241   311
12.8341   326
12.8441   320
12.8541   313
12.8641   325
12.8741   324
12.8841   309
12.8941   310
12.9041   315
12.9141   317
12.9241   327
12.9341   318
12.9441   326
12.9541   342
12.9641   336
12.9741   330
12.9841   311
12.9941   314
13.0041   322
13.0141   321
13.0241   317
13.0341   338
13.0441   350
13.0541   333
13.0641   318
13.0741   338
13.0841   350
13.0941   358
13.1041   357
13.1141   352
13.1241   371
13.1341   366
13.1441   350
13.1541   352
13.1641   350
13.1741   349
13.1841   384
13.1941   398
13.2041   414
13.2141   427
13.2241   414
13.2341   431
13.2441   475
13.2541   470
13.2641   454
13.2741   438
13.2841   441
13.2941   445
13.3041   471
13.3141   492
13.3241   462
13.3341   460
13.3441   462
13.3541   460
13.3641   454
13.3741   438
13.3841   445
13.3941   467
13.4041   441
13.4141   414
13.4241   419
13.4341   405
13.4441   392
13.4541   411
13.4641   414
13.4741   396
13.4841   387
13.4941   395
13.5041   394
13.5141   407
13.5241   404
13.5341   417
13.5441   422
13.5541   396
13.5641   383
13.5741   399
13.5841   413
13.5941   387
13.6041   385
13.6141   393
13.6241   383
13.6341   372
13.6441   387
13.6541   403
13.6641   405
13.6741   412
13.6841   413
13.6941   390
13.7041   397
13.7141   404
13.7241   394
13.7341   400
13.7441   384
13.7541   394
13.7641   404
13.7741   403
13.7841   400
13.7941   394
13.8041   397
13.8141   401
13.8241   405
13.8341   414
13.8441   405
13.8541   374
13.8641   394
13.8741   435
13.8841   442
13.8941   430
13.9041   430
13.9141   435
13.9241   437
13.9341   429
13.9441   445
13.9541   474
13.9641   479
13.9741   501
13.9841   522
13.9941   505
14.0041   499
14.0141   543
14.0241   556
14.0341   558
14.0441   577
14.0541   587
14.0641   631
14.0741   661
14.0841   646
14.0941   634
14.1041   684
14.1141   719
14.1241   731
14.1341   731
14.1441   700
14.1541   707
14.1641   725
14.1741   716
14.1841   683
14.1941   643
14.2041   640
14.2141   657
14.2241   626
14.2341   597
14.2441   585
14.2541   574
14.2641   544
14.2741   524
14.2841   523
14.2941   510
14.3041   491
14.3141   481
14.3241   496
14.3341   496
14.3441   457
14.3541   434
14.3641   466
14.3741   462
14.3841   462
14.3941   476
14.4041   468
14.4141   464
14.4241   471
14.4341   478
14.4441   482
14.4541   464
14.4641   445
14.4741   465
14.4841   488
14.4941   478
14.5041   474
14.5141   479
14.5241   454
14.5341   470
14.5441   500
14.5541   485
14.5641   482
14.5741   474
14.5841   466
14.5941   478
14.6041   490
14.6141   471
14.6241   477
14.6341   497
14.6441   481
14.6541   474
14.6641   495
14.6741   495
14.6841   474
14.6941   473
14.7041   458
14.7141   495
14.7241   520
14.7341   521
14.7441   496
14.7541   497
14.7641   532
14.7741   501
14.7841   487
14.7941   524
14.8041   524
14.8141   526
14.8241   529
14.8341   505
14.8441   492
14.8541   521
14.8641   533
14.8741   499
14.8841   493
14.8941   516
14.9041   515
14.9141   517
14.9241   515
14.9341   505
14.9441   520
14.9541   541
14.9641   523
14.9741   513
14.9841   518
14.9941   522
15.0041   535
15.0141   555
15.0241   531
15.0341   499
15.0441   507
15.0541   505
15.0641   531
15.0741   537
15.0841   528
15.0941   536
15.1041   547
15.1141   531
15.1241   532
15.1341   545
15.1441   527
15.1541   532
15.1641   537
15.1741   549
15.1841   564
15.1941   554
15.2041   559
15.2141   535
15.2241   531
15.2341   536
15.2441   530
15.2541   537
15.2641   547
15.2741   568
15.2841   560
15.2941   546
15.3041   545
15.3141   533
15.3241   529
15.3341   573
15.3441   558
15.3541   550
15.3641   565
15.3741   571
15.3841   561
15.3941   550
15.4041   559
15.4141   547
15.4241   549
15.4341   577
15.4441   577
15.4541   573
15.4641   574
15.4741   578
15.4841   551
15.4941   576
15.5041   595
15.5141   569
15.5241   581
15.5341   572
15.5441   545
15.5541   579
15.5641   617
15.5741   604
15.5841   598
15.5941   591
15.6041   559
15.6141   598
15.6241   612
15.6341   601
15.6441   606
15.6541   605
15.6641   613
15.6741   634
15.6841   638
15.6941   667
15.7041   667
15.7141   666
15.7241   646
15.7341   649
15.7441   680
15.7541   676
15.7641   670
15.7741   677
15.7841   647
15.7941   652
15.8041   717
15.8141   712
15.8241   648
15.8341   663
15.8441   651
15.8541   660
15.8641   653
15.8741   645
15.8841   671
15.8941   684
15.9041   657
15.9141   648
15.9241   652
15.9341   622
15.9441   614
15.9541   632
15.9641   623
15.9741   618
15.9841   646
15.9941   651
16.0041   640
16.0141   627
16.0241   632
16.0341   624
16.0441   633
16.0541   647
16.0641   650
16.0741   643
16.0841   657
16.0941   633
16.1041   627
16.1141   619
16.1241   619
16.1341   658
16.1441   671
16.1541   629
16.1641   651
16.1741   650
16.1841   638
16.1941   600
16.2041   615
16.2141   644
16.2241   667
16.2341   646
16.2441   643
16.2541   637
16.2641   676
16.2741   638
16.2841   618
16.2941   658
16.3041   643
16.3141   631
16.3241   638
16.3341   663
16.3441   661
16.3541   626
16.3641   645
16.3741   611
16.3841   641
16.3941   667
16.4041   653
16.4141   644
16.4241   675
16.4341   656
16.4441   635
16.4541   642
16.4641   681
16.4741   701
16.4841   675
16.4941   659
16.5041   654
16.5141   693
16.5241   701
16.5341   696
16.5441   692
16.5541   666
16.5641   657
16.5741   674
16.5841   706
16.5941   690
16.6041   636
16.6141   680
16.6241   676
16.6341   686
16.6441   667
16.6541   651
16.6641   650
16.6741   659
16.6841   698
16.6941   689
16.7041   665
16.7141   657
16.7241   675
16.7341   689
16.7441   685
16.7541   688
16.7641   666
16.7741   665
16.7841   677
16.7941   690
16.8041   667
16.8141   699
16.8241   691
16.8341   670
16.8441   695
16.8541   683
16.8641   671
16.8741   687
16.8841   724
16.8941   697
16.9041   686
16.9141   700
16.9241   698
16.9341   672
16.9441   687
16.9541   713
16.9641   734
16.9741   717
16.9841   682
16.9941   707
17.0041   721
17.0141   711
17.0241   711
17.0341   707
17.0441   673
17.0541   652
17.0641   675
17.0741   723
17.0841   713
17.0941   717
17.1041   731
17.1141   735
17.1241   748
17.1341   733
17.1441   704
17.1541   721
17.1641   687
17.1741   731
17.1841   756
17.1941   688
17.2041   715
17.2141   750
17.2241   785
17.2341   762
17.2441   731
17.2541   730
17.2641   723
17.2741   745
17.2841   755
17.2941   697
17.3041   730
17.3141   728
17.3241   718
17.3341   753
17.3441   753
17.3541   743
17.3641   754
17.3741   723
17.3841   745
17.3941   748
17.4041   730
17.4141   722
17.4241   708
17.4341   746
17.4441   727
17.4541   735
17.4641   743
17.4741   746
17.4841   751
17.4941   736
17.5041   728
17.5141   730
17.5241   751
17.5341   748
17.5441   741
17.5541   770
17.5641   770
17.5741   754
17.5841   732
17.5941   744
17.6041   757
17.6141   732
17.6241   729
17.6341   740
17.6441   788
17.6541   763
17.6641   788
17.6741   765
17.6841   760
17.6941   764
17.7041   750
17.7141   746
17.7241   727
17.7341   726
17.7441   711
17.7541   745
17.7641   758
17.7741   749
17.7841   762
17.7941   778
17.8041   806
17.8141   754
17.8241   751
17.8341   766
17.8441   718
17.8541   734
17.8641   762
17.8741   744
17.8841   739
17.8941   739
17.9041   761
17.9141   808
17.9241   779
17.9341   796
17.9441   760
17.9541   753
17.9641   735
17.9741   752
17.9841   758
17.9941   763
18.0041   750
18.0141   758
18.0241   777
18.0341   775
18.0441   767
18.0541   795
18.0641   760
18.0741   747
18.0841   744
18.0941   777
18.1041   776
18.1141   785
18.1241   742
18.1341   740
18.1441   760
18.1541   813
18.1641   789
18.1741   789
18.1841   781
18.1941   752
18.2041   783
18.2141   799
18.2241   762
18.2341   755
18.2441   763
18.2541   745
18.2641   781
18.2741   800
18.2841   824
18.2941   808
18.3041   771
18.3141   777
18.3241   774
18.3341   757
18.3441   788
18.3541   806
18.3641   812
18.3741   779
18.3841   733
18.3941   752
18.4041   791
18.4141   767
18.4241   758
18.4341   801
18.4441   795
18.4541   774
18.4641   778
18.4741   760
18.4841   747
18.4941   745
18.5041   785
18.5141   809
18.5241   790
18.5341   778
18.5441   794
18.5541   753
18.5641   731
18.5741   757
18.5841   726
18.5941   731
18.6041   768
18.6141   806
18.6241   771
18.6341   797
18.6441   780
18.6541   813
18.6641   745
18.6741   772
18.6841   777
18.6941   785
18.7041   762
18.7141   773
18.7241   749
18.7341   792
18.7441   821
18.7541   805
18.7641   790
18.7741   775
18.7841   798
18.7941   807
18.8041   835
18.8141   829
18.8241   754
18.8341   743
18.8441   790
18.8541   786
18.8641   804
18.8741   768
18.8841   786
18.8941   797
18.9041   793
18.9141   793
18.9241   798
18.9341   747
18.9441   790
18.9541   775
18.9641   774
18.9741   812
18.9841   815
18.9941   818
19.0041   804
19.0141   802
19.0241   803
19.0341   797
19.0441   792
19.0541   782
19.0641   834
19.0741   776
19.0841   788
19.0941   820
19.1041   800
19.1141   755
19.1241   786
19.1341   795
19.1441   775
19.1541   824
19.1641   794
19.1741   833
19.1841   818
19.1941   822
19.2041   817
19.2141   837
19.2241   794
19.2341   787
19.2441   821
19.2541   841
19.2641   767
19.2741   791
19.2841   789
19.2941   771
19.3041   802
19.3141   852
19.3241   821
19.3341   778
19.3441   798
19.3541   775
19.3641   784
19.3741   792
19.3841   795
19.3941   801
19.4041   785
19.4141   785
19.4241   791
19.4341   805
19.4441   772
19.4541   779
19.4641   783
19.4741   776
19.4841   833
19.4941   809
19.5041   804
19.5141   778
19.5241   812
19.5341   810
19.5441   800
19.5541   781
19.5641   774
19.5741   811
19.5841   832
19.5941   798
19.6041   823
19.6141   790
19.6241   765
19.6341   775
19.6441   822
19.6541   773
19.6641   782
19.6741   773
19.6841   816
19.6941   771
19.7041   783
19.7141   795
19.7241   766
19.7341   799
19.7441   833
19.7541   796
19.7641   789
19.7741   803
19.7841   806
19.7941   813
19.8041   845
19.8141   769
19.8241   766
19.8341   808
19.8441   831
19.8541   811
19.8641   824
19.8741   828
19.8841   824
19.8941   839
19.9041   815
19.9141   817
19.9241   821
19.9341   793
19.9441   782
19.9541   786
19.9641   767
19.9741   804
19.9841   801
19.9941   762
20.0041   766
20.0141   816
20.0241   787
20.0341   819
20.0441   795
20.0541   750
20.0641   855
20.0741   811
20.0841   787
20.0941   781
20.1041   768
20.1141   799
20.1241   817
20.1341   805
20.1441   806
20.1541   775
20.1641   810
20.1741   762
20.1841   813
20.1941   807
20.2041   799
20.2141   837
20.2241   818
20.2341   799
20.2441   794
20.2541   777
20.2641   785
20.2741   801
20.2841   809
20.2941   749
20.3041   783
20.3141   794
20.3241   781
20.3341   800
20.3441   804
20.3541   809
20.3641   792
20.3741   828
20.3841   832
20.3941   799
20.4041   837
20.4141   788
20.4241   853
20.4341   802
20.4441   778
20.4541   802
20.4641   799
20.4741   755
20.4841   753
20.4941   793
20.5041   814
20.5141   825
20.5241   768
20.5341   749
20.5441   797
20.5541   771
20.5641   803
20.5741   801
20.5841   789
20.5941   802
20.6041   814
20.6141   779
20.6241   793
20.6341   770
20.6441   757
20.6541   766
20.6641   751
20.6741   811
20.6841   823
20.6941   850
20.7041   784
20.7141   804
20.7241   790
20.7341   758
20.7441   792
20.7541   818
20.7641   774
20.7741   786
20.7841   734
20.7941   774
20.8041   837
20.8141   826
20.8241   814
20.8341   832
20.8441   811
20.8541   799
20.8641   840
20.8741   835
20.8841   877
20.8941   861
20.9041   838
20.9141   826
20.9241   874
20.9341   925
20.9441   921
20.9541   929
20.9641   916
20.9741   926
20.9841   959
20.9941   959
21.0041   939
21.0141   968
21.0241  1020
21.0341   962
21.0441  1060
21.0541  1100
21.0641  1047
21.0741  1072
21.0841  1099
21.0941  1057
21.1041  1051
21.1141  1040
21.1241  1127
21.1341  1046
21.1441  1085
21.1541  1029
21.1641  1058
21.1741  1083
21.1841  1068
21.1941  1067
21.2041  1011
21.2141  1021
21.2241  1040
21.2341   970
21.2441   963
21.2541  1011
21.2641   934
21.2741   928
21.2841   881
21.2941   883
21.3041   885
21.3141   840
21.3241   859
21.3341   872
21.3441   826
21.3541   803
21.3641   787
21.3741   819
21.3841   789
21.3941   856
21.4041   808
21.4141   786
21.4241   764
21.4341   769
21.4441   742
21.4541   791
21.4641   808
21.4741   778
21.4841   767
21.4941   792
21.5041   786
21.5141   747
21.5241   725
21.5341   776
21.5441   807
21.5541   787
21.5641   760
21.5741   747
21.5841   746
21.5941   780
21.6041   821
21.6141   795
21.6241   748
21.6341   783
21.6441   767
21.6541   801
21.6641   766
21.6741   714
21.6841   798
21.6941   788
21.7041   753
21.7141   763
21.7241   770
21.7341   771
21.7441   749
21.7541   783
21.7641   775
21.7741   772
21.7841   792
21.7941   773
21.8041   741
21.8141   775
21.8241   767
21.8341   733
21.8441   755
21.8541   737
21.8641   754
21.8741   749
21.8841   737
21.8941   766
21.9041   722
21.9141   721
21.9241   732
21.9341   795
21.9441   788
21.9541   771
21.9641   772
21.9741   766
21.9841   724
21.9941   771
22.0041   718
22.0141   742
22.0241   756
22.0341   765
22.0441   751
22.0541   765
22.0641   778
22.0741   779
22.0841   764
22.0941   724
22.1041   736
22.1141   700
22.1241   751
22.1341   734
22.1441   657
22.1541   736
22.1641   726
22.1741   731
22.1841   780
22.1941   709
22.2041   736
22.2141   746
22.2241   729
22.2341   704
22.2441   750
22.2541   764
22.2641   766
22.2741   719
22.2841   724
22.2941   697
22.3041   788
22.3141   712
22.3241   739
22.3341   713
22.3441   754
22.3541   719
22.3641   681
22.3741   727
22.3841   729
22.3941   762
22.4041   751
22.4141   717
22.4241   755
22.4341   733
22.4441   703
22.4541   696
22.4641   729
22.4741   684
22.4841   780
22.4941   746
22.5041   725
22.5141   714
22.5241   732
22.5341   731
22.5441   705
22.5541   705
22.5641   695
22.5741   723
22.5841   718
22.5941   751
22.6041   688
22.6141   727
22.6241   723
22.6341   741
22.6441   701
22.6541   701
22.6641   721
22.6741   742
22.6841   694
22.6941   727
22.7041   694
22.7141   717
22.7241   685
22.7341   705
22.7441   716
22.7541   690
22.7641   744
22.7741   709
22.7841   720
22.7941   768
22.8041   709
22.8141   756
22.8241   707
22.8341   725
22.8441   697
22.8541   691
22.8641   715
22.8741   702
22.8841   725
22.8941   665
22.9041   723
22.9141   707
22.9241   677
22.9341   708
22.9441   671
22.9541   759
22.9641   704
22.9741   679
22.9841   658
22.9941   689
23.0041   716
23.0141   698
23.0241   686
23.0341   679
23.0441   693
23.0541   644
23.0641   710
23.0741   737
23.0841   671
23.0941   673
23.1041   694
23.1141   714
23.1241   697
23.1341   672
23.1441   695
23.1541   696
23.1641   736
23.1741   713
23.1841   694
23.1941   694
23.2041   689
23.2141   700
23.2241   739
23.2341   660
23.2441   705
23.2541   686
23.2641   690
23.2741   676
23.2841   612
23.2941   699
23.3041   672
23.3141   699
23.3241   717
23.3341   664
23.3441   667
23.3541   717
23.3641   662
23.3741   712
23.3841   672
23.3941   703
23.4041   672
23.4141   726
23.4241   650
23.4341   638
23.4441   636
23.4541   629
23.4641   702
23.4741   678
23.4841   695
23.4941   692
23.5041   708
23.5141   646
23.5241   668
23.5341   684
23.5441   639
23.5541   673
23.5641   639
23.5741   701
23.5841   676
23.5941   666
23.6041   701
23.6141   674
23.6241   694
23.6341   640
23.6441   702
23.6541   695
23.6641   688
23.6741   679
23.6841   733
23.6941   659
23.7041   675
23.7141   727
23.7241   697
23.7341   715
23.7441   715
23.7541   689
23.7641   734
23.7741   651
23.7841   721
23.7941   748
23.8041   726
23.8141   681
23.8241   722
23.8341   682
23.8441   676
23.8541   693
23.8641   723
23.8741   672
23.8841   721
23.8941   734
23.9041   697
23.9141   691
23.9241   644
23.9341   662
23.9441   722
23.9541   691
23.9641   656
23.9741   652
23.9841   677
23.9941   619
24.0041   627
24.0141   624
24.0241   628
24.0341   643
24.0441   603
24.0541   631
24.0641   623
24.0741   636
24.0841   665
24.0941   623
24.1041   656
24.1141   679
24.1241   664
24.1341   644
24.1441   672
24.1541   596
24.1641   613
24.1741   607
24.1841   632
24.1941   632
24.2041   651
24.2141   681
24.2241   659
24.2341   620
24.2441   613
24.2541   641
24.2641   628
24.2741   664
24.2841   656
24.2941   630
24.3041   645
24.3141   565
24.3241   633
24.3341   633
24.3441   674
24.3541   650
24.3641   611
24.3741   632
24.3841   602
24.3941   632
24.4041   629
24.4141   592
24.4241   604
24.4341   590
24.4441   603
24.4541   556
24.4641   646
24.4741   583
24.4841   602
24.4941   625
24.5041   615
24.5141   654
24.5241   611
24.5341   619
24.5441   606
24.5541   585
24.5641   653
24.5741   634
24.5841   631
24.5941   656
24.6041   658
24.6141   577
24.6241   588
24.6341   628
24.6441   608
24.6541   595
24.6641   576
24.6741   587
24.6841   647
24.6941   638
24.7041   590
24.7141   574
24.7241   589
24.7341   622
24.7441   628
24.7541   576
24.7641   624
24.7741   607
24.7841   596
24.7941   552
24.8041   596
24.8141   656
24.8241   589
24.8341   598
24.8441   586
24.8541   565
24.8641   618
24.8741   590
24.8841   624
24.8941   603
24.9041   638
24.9141   621
24.9241   556
24.9341   591
24.9441   585
24.9541   558
24.9641   605
24.9741   576
24.9841   586
24.9941   589
25.0041   596
25.0141   596
25.0241   526
25.0341   575
25.0441   610
25.0541   613
25.0641   596
25.0741   598
25.0841   581
25.0941   604
25.1041   610
25.1141   569
25.1241   596
25.1341   593
25.1441   582
25.1541   557
25.1641   593
25.1741   577
25.1841   573
25.1941   604
25.2041   565
25.2141   599
25.2241   588
25.2341   601
25.2441   598
25.2541   595
25.2641   608
25.2741   597
25.2841   616
25.2941   595
25.3041   585
25.3141   576
25.3241   618
25.3341   574
25.3441   565
25.3541   559
25.3641   576
25.3741   572
25.3841   541
25.3941   576
25.4041   589
25.4141   553
25.4241   565
25.4341   557
25.4441   590
25.4541   557
25.4641   497
25.4741   562
25.4841   550
25.4941   591
25.5041   567
25.5141   552
25.5241   563
25.5341   556
25.5441   525
25.5541   540
25.5641   533
25.5741   533
25.5841   541
25.5941   550
25.6041   567
25.6141   523
25.6241   540
25.6341   550
25.6441   561
25.6541   539
25.6641   570
25.6741   534
25.6841   534
25.6941   571
25.7041   589
25.7141   576
25.7241   517
25.7341   590
25.7441   506
25.7541   504
25.7641   556
25.7741   528
25.7841   555
25.7941   532
25.8041   549
25.8141   491
25.8241   546
25.8341   521
25.8441   551
25.8541   523
25.8641   554
25.8741   585
25.8841   543
25.8941   551
25.9041   533
25.9141   536
25.9241   502
25.9341   559
25.9441   529
25.9541   536
25.9641   524
25.9741   502
25.9841   579
25.9941   533
26.0041   505
26.0141   510
26.0241   498
26.0341   529
26.0441   526
26.0541   541
26.0641   515
26.0741   529
26.0841   512
26.0941   518
26.1041   518
26.1141   543
26.1241   523
26.1341   542
26.1441   524
26.1541   498
26.1641   503
26.1741   492
26.1841   507
26.1941   528
26.2041   509
26.2141   555
26.2241   538
26.2341   515
26.2441   487
26.2541   509
26.2641   522
26.2741   528
26.2841   500
26.2941   496
26.3041   535
26.3141   515
26.3241   473
26.3341   499
26.3441   499
26.3541   521
26.3641   507
26.3741   508
26.3841   522
26.3941   510
26.4041   528
26.4141   516
26.4241   512
26.4341   508
26.4441   494
26.4541   474
26.4641   493
26.4741   486
26.4841   477
26.4941   500
26.5041   556
26.5141   504
26.5241   536
26.5341   491
26.5441   488
26.5541   482
26.5641   485
26.5741   491
26.5841   484
26.5941   501
26.6041   483
26.6141   488
26.6241   494
26.6341   454
26.6441   492
26.6541   460
26.6641   535
26.6741   492
26.6841   498
26.6941   447
26.7041   461
26.7141   478
26.7241   502
26.7341   527
26.7441   468
26.7541   486
26.7641   477
26.7741   478
26.7841   480
26.7941   492
26.8041   483
26.8141   479
26.8241   486
26.8341   447
26.8441   448
26.8541   474
26.8641   494
26.8741   454
26.8841   429
26.8941   470
26.9041   448
26.9141   457
26.9241   488
26.9341   455
26.9441   441
26.9541   446
26.9641   521
26.9741   460
26.9841   450
26.9941   462
27.0041   431
27.0141   444
27.0241   468
27.0341   478
27.0441   496
27.0541   472
27.0641   452
27.0741   451
27.0841   461
27.0941   473
27.1041   426
27.1141   449
27.1241   461
27.1341   457
27.1441   453
27.1541   466
27.1641   468
27.1741   472
27.1841   429
27.1941   414
27.2041   476
27.2141   438
27.2241   444
27.2341   456
27.2441   466
27.2541   458
27.2641   460
27.2741   438
27.2841   415
27.2941   423
27.3041   453
27.3141   455
27.3241   462
27.3341   439
27.3441   444
27.3541   472
27.3641   473
27.3741   443
27.3841   484
27.3941   419
27.4041   470
27.4141   414
27.4241   459
27.4341   431
27.4441   465
27.4541   442
27.4641   437
27.4741   442
27.4841   415
27.4941   417
27.5041   421
27.5141   463
27.5241   461
27.5341   481
27.5441   457
27.5541   468
27.5641   402
27.5741   469
27.5841   443
27.5941   412
27.6041   430
27.6141   402
27.6241   417
27.6341   456
27.6441   439
27.6541   450
27.6641   432
27.6741   439
27.6841   417
27.6941   432
27.7041   415
27.7141   408
27.7241   431
27.7341   416
27.7441   426
27.7541   412
27.7641   384
27.7741   432
27.7841   442
27.7941   442
27.8041   396
27.8141   392
27.8241   408
27.8341   427
27.8441   403
27.8541   407
27.8641   415
27.8741   388
27.8841   418
27.8941   435
27.9041   382
27.9141   401
27.9241   392
27.9341   387
27.9441   419
27.9541   383
27.9641   399
27.9741   428
27.9841   418
27.9941   408
28.0041   369
28.0141   392
28.0241   423
28.0341   385
28.0441   434
28.0541   413
28.0641   415
28.0741   393
28.0841   380
28.0941   407
28.1041   400
28.1141   409
28.1241   368
28.1341   374
28.1441   403
28.1541   389
28.1641   398
28.1741   385
28.1841   394
28.1941   383
28.2041   364
28.2141   399
28.2241   409
28.2341   373
28.2441   429
28.2541   369
28.2641   412
28.2741   377
28.2841   377
28.2941   359
28.3041   392
28.3141   380
28.3241   423
28.3341   393
28.3441   369
28.3541   381
28.3641   405
28.3741   363
28.3841   359
28.3941   405
28.4041   402
28.4141   381
28.4241   405
28.4341   377
28.4441   411
28.4541   428
28.4641   405
28.4741   407
28.4841   393
28.4941   351
28.5041   359
28.5141   370
28.5241   377
28.5341   367
28.5441   364
28.5541   355
28.5641   349
28.5741   368
28.5841   393
28.5941   359
28.6041   362
28.6141   366
28.6241   343
28.6341   397
28.6441   353
28.6541   346
28.6641   353
28.6741   365
28.6841   376
28.6941   364
28.7041   368
28.7141   375
28.7241   337
28.7341   369
28.7441   368
28.7541   380
28.7641   345
28.7741   391
28.7841   348
28.7941   346
28.8041   356
28.8141   364
28.8241   355
28.8341   377
28.8441   361
28.8541   355
28.8641   359
28.8741   360
28.8841   356
28.8941   358
28.9041   393
28.9141   317
28.9241   359
28.9341   354
28.9441   366
28.9541   353
28.9641   372
28.9741   347
28.9841   337
28.9941   343
29.0041   339
29.0141   341
29.0241   355
29.0341   354
29.0441   351
29.0541   375
29.0641   317
29.0741   341
29.0841   350
29.0941   335
29.1041   360
29.1141   330
29.1241   331
29.1341   364
29.1441   350
29.1541   355
29.1641   359
29.1741   336
29.1841   348
29.1941   349
29.2041   338
29.2141   320
29.2241   332
29.2341   307
29.2441   331
29.2541   332
29.2641   334
29.2741   326
29.2841   346
29.2941   310
29.3041   336
29.3141   324
29.3241   330
29.3341   339
29.3441   317
29.3541   326
29.3641   352
29.3741   318
29.3841   344
29.3941   347
29.4041   321
29.4141   326
29.4241   316
29.4341   304
29.4441   332
29.4541   292
29.4641   309
29.4741   344
29.4841   339
29.4941   341
29.5041   318
29.5141   301
29.5241   339
29.5341   334
29.5441   343
29.5541   303
29.5641   317
29.5741   315
29.5841   345
29.5941   348
29.6041   322
29.6141   328
29.6241   321
29.6341   309
29.6441   309
29.6541   326
29.6641   297
29.6741   351
29.6841   315
29.6941   324
29.7041   313
29.7141   312
29.7241   331
29.7341   297
29.7441   311
29.7541   285
29.7641   321
29.7741   322
29.7841   323
29.7941   328
29.8041   293
29.8141   318
29.8241   316
29.8341   293
29.8441   321
29.8541   310
29.8641   284
29.8741   308
29.8841   331
29.8941   316
29.9041   319
29.9141   311
29.9241   300
29.9341   298
29.9441   308
29.9541   287
29.9641   293
29.9741   305
29.9841   325
29.9941   289
30.0041   304
30.0141   337
30.0241   302
30.0341   283
30.0441   295
30.0541   292
30.0641   287
30.0741   314
30.0841   288
30.0941   277
30.1041   297
30.1141   310
30.1241   278
30.1341   304
30.1441   290
30.1541   313
30.1641   273
30.1741   294
30.1841   278
30.1941   308
30.2041   305
30.2141   290
30.2241   251
30.2341   317
30.2441   279
30.2541   298
30.2641   267
30.2741   291
30.2841   280
30.2941   290
30.3041   308
30.3141   286
30.3241   290
30.3341   278
30.3441   316
30.3541   279
30.3641   300
30.3741   284
30.3841   303
30.3941   243
30.4041   287
30.4141   259
30.4241   295
30.4341   280
30.4441   273
30.4541   267
30.4641   272
30.4741   248
30.4841   273
30.4941   274
30.5041   270
30.5141   264
30.5241   285
30.5341   277
30.5441   275
30.5541   275
30.5641   279
30.5741   261
30.5841   275
30.5941   270
30.6041   288
30.6141   264
30.6241   274
30.6341   289
30.6441   257
30.6541   294
30.6641   268
30.6741   280
30.6841   258
30.6941   263
30.7041   278
30.7141   278
30.7241   289
30.7341   270
30.7441   281
30.7541   256
30.7641   274
30.7741   278
30.7841   273
30.7941   272
30.8041   301
30.8141   266
30.8241   266
30.8341   262
30.8441   293
30.8541   262
30.8641   267
30.8741   262
30.8841   250
30.8941   273
30.9041   280
30.9141   280
30.9241   240
30.9341   263
30.9441   281
30.9541   248
30.9641   272
30.9741   266
30.9841   251
30.9941   291
31.0041   264
31.0141   278
31.0241   228
31.0341   266
31.0441   277
31.0541   255
31.0641   246
31.0741   262
31.0841   269
31.0941   267
31.1041   265
31.1141   272
31.1241   264
31.1341   241
31.1441   271
31.1541   249
31.1641   232
31.1741   239
31.1841   253
31.1941   267
31.2041   229
31.2141   233
31.2241   274
31.2341   250
31.2441   261
31.2541   208
31.2641   253
31.2741   264
31.2841   231
31.2941   238
31.3041   223
31.3141   254
31.3241   266
31.3341   228
31.3441   257
31.3541   263
31.3641   237
31.3741   249
31.3841   226
31.3941   244
31.4041   277
31.4141   243
31.4241   233
31.4341   239
31.4441   241
31.4541   244
31.4641   244
31.4741   212
31.4841   259
31.4941   240
31.5041   248
31.5141   244
31.5241   240
31.5341   210
31.5441   235
31.5541   230
31.5641   198
31.5741   230
31.5841   259
31.5941   215
31.6041   206
31.6141   229
31.6241   221
31.6341   230
31.6441   254
31.6541   245
31.6641   222
31.6741   232
31.6841   226
31.6941   237
31.7041   230
31.7141   240
31.7241   232
31.7341   226
31.7441   210
31.7541   242
31.7641   246
31.7741   228
31.7841   205
31.7941   208
31.8041   200
31.8141   218
31.8241   210
31.8341   244
31.8441   217
31.8541   223
31.8641   229
31.8741   219
31.8841   225
31.8941   226
31.9041   246
31.9141   232
31.9241   253
31.9341   228
31.9441   222
31.9541   211
31.9641   235
31.9741   196
31.9841   212
31.9941   214
32.0041   241
32.0141   203
32.0241   244
32.0341   200
32.0441   217
32.0541   200
32.0641   239
32.0741   214
32.0841   206
32.0941   215
32.1041   210
32.1141   200
32.1241   204
32.1341   190
32.1441   209
32.1541   247
32.1641   209
32.1741   209
32.1841   214
32.1941   204
32.2041   205
32.2141   199
32.2241   218
32.2341   216
32.2441   226
32.2541   221
32.2641   197
32.2741   189
32.2841   223
32.2941   202
32.3041   216
32.3141   210
32.3241   211
32.3341   216
32.3441   182
32.3541   198
32.3641   191
32.3741   185
32.3841   190
32.3941   225
32.4041   241
32.4141   214
32.4241   210
32.4341   169
32.4441   203
32.4541   205
32.4641   201
32.4741   204
32.4841   204
32.4941   201
32.5041   215
32.5141   206
32.5241   186
32.5341   198
32.5441   201
32.5541   176
32.5641   206
32.5741   198
32.5841   229
32.5941   219
32.6041   201
32.6141   180
32.6241   170
32.6341   177
32.6441   180
32.6541   178
32.6641   185
32.6741   177
32.6841   176
32.6941   193
32.7041   183
32.7141   191
32.7241   186
32.7341   191
32.7441   185
32.7541   175
32.7641   198
32.7741   204
32.7841   189
32.7941   185
32.8041   205
32.8141   197
32.8241   180
32.8341   181
32.8441   168
32.8541   197
32.8641   157
32.8741   205
32.8841   175
32.8941   179
32.9041   173
32.9141   181
32.9241   161
32.9341   171
32.9441   190
32.9541   192
32.9641   199
32.9741   167
32.9841   178
32.9941   172
33.0041   210
33.0141   182
33.0241   192
33.0341   188
33.0441   167
33.0541   183
33.0641   185
33.0741   185
33.0841   170
33.0941   182
33.1041   177
33.1141   182
33.1241   197
33.1341   183
33.1441   165
33.1541   205
33.1641   162
33.1741   166
33.1841   175
33.1941   169
33.2041   173
33.2141   173
33.2241   166
33.2341   171
33.2441   187
33.2541   176
33.2641   174
33.2741   187
33.2841   192
33.2941   200
33.3041   180
33.3141   149
33.3241   155
33.3341   165
33.3441   174
33.3541   183
33.3641   178
33.3741   164
33.3841   157
33.3941   165
33.4041   156
33.4141   169
33.4241   163
33.4341   144
33.4441   171
33.4541   149
33.4641   163
33.4741   172
33.4841   178
33.4941   185
33.5041   176
33.5141   183
33.5241   174
33.5341   149
33.5441   171
33.5541   165
33.5641   136
33.5741   174
33.5841   171
33.5941   145
33.6041   161
33.6141   121
33.6241   164
33.6341   165
33.6441   163
33.6541   160
33.6641   160
33.6741   163
33.6841   155
33.6941   153
33.7041   161
33.7141   153
33.7241   144
33.7341   151
33.7441   146
33.7541   157
33.7641   159
33.7741   144
33.7841   151
33.7941   148
33.8041   143
33.8141   167
33.8241   159
33.8341   176
33.8441   172
33.8541   187
33.8641   165
33.8741   167
33.8841   150
33.8941   161
33.9041   169
33.9141   154
33.9241   154
33.9341   142
33.9441   146
33.9541   148
33.9641   156
33.9741   160
33.9841   164
33.9941   136
34.0041   167
34.0141   141
34.0241   163
34.0341   150
34.0441   145
34.0541   157
34.0641   139
34.0741   144
34.0841   142
34.0941   130
34.1041   152
34.1141   153
34.1241   152
34.1341   136
34.1441   131
34.1541   132
34.1641   134
34.1741   138
34.1841   142
34.1941   139
34.2041   124
34.2141   151
34.2241   135
34.2341   140
34.2441   150
34.2541   145
34.2641   150
34.2741   124
34.2841   143
34.2941   147
34.3041   160
34.3141   143
34.3241   148
34.3341   135
34.3441   140
34.3541   133
34.3641   145
34.3741   120
34.3841   140
34.3941   150
34.4041   164
34.4141   140
34.4241   143
34.4341   138
34.4441   146
34.4541   149
34.4641   162
34.4741   123
34.4841   117
34.4941   130
34.5041   133
34.5141   138
34.5241   133
34.5341   120
34.5441   117
34.5541   127
34.5641   141
34.5741   131
34.5841   140
34.5941   146
34.6041   125
34.6141   138
34.6241   151
34.6341   152
34.6441   126
34.6541   127
34.6641   115
34.6741   129
34.6841   143
34.6941   126
34.7041   142
34.7141   121
34.7241   144
34.7341   152
34.7441   130
34.7541   106
34.7641   142
34.7741   129
34.7841   113
34.7941   126
34.8041   141
34.8141   127
34.8241   135
34.8341   144
34.8441   118
34.8541   129
34.8641   139
34.8741   128
34.8841   131
34.8941   110
34.9041   116
34.9141   116
34.9241   125
34.9341   132
34.9441   119
34.9541   125
34.9641   113
34.9741   122
34.9841   129
34.9941   116
35.0041   120
35.0141   116
35.0241   134
35.0341   113
35.0441   120
35.0541   136
35.0641   134
35.0741   127
35.0841   113
35.0941   112
35.1041   113
35.1141   122
35.1241   129
35.1341   113
35.1441   116
35.1541   114
35.1641   134
35.1741   123
35.1841   106
35.1941   137
35.2041   119
35.2141   115
35.2241   107
35.2341   111
35.2441   118
35.2541   122
35.2641   113
35.2741   133
35.2841   137
35.2941   130
35.3041   106
35.3141   120
35.3241   130
35.3341   113
35.3441   122
35.3541   101
35.3641   107
35.3741   120
35.3841   115
35.3941   120
35.4041   122
35.4141    99
35.4241   114
35.4341   108
35.4441   112
35.4541   112
35.4641   134
35.4741   126
35.4841   118
35.4941   112
35.5041   122
35.5141   113
35.5241   100
35.5341   130
35.5441   109
35.5541   101
35.5641   110
35.5741   105
35.5841   112
35.5941   111
35.6041    99
35.6141    97
35.6241   114
35.6341   110
35.6441   101
35.6541   116
35.6641   123
35.6741   113
35.6841    88
35.6941    95
35.7041   105
35.7141   108
35.7241   117
35.7341    99
35.7441    94
35.7541   102
35.7641   105
35.7741   104
35.7841   113
35.7941   114
35.8041   104
35.8141    86
35.8241   101
35.8341    90
35.8441   100
35.8541   113
35.8641   113
35.8741    83
35.8841   110
35.8941    85
35.9041   115
35.9141    93
35.9241   104
35.9341    90
35.9441    95
35.9541   125
35.9641   100
35.9741   110
35.9841    94
35.9941    93
36.0041    85
36.0141    86
36.0241    96
36.0341   116
36.0441   103
36.0541    93
36.0641   101
36.0741    98
36.0841    94
36.0941    96
36.1041    93
36.1141    95
36.1241    95
36.1341    94
36.1441    96
36.1541    91
36.1641    78
36.1741   111
36.1841   123
36.1941   102
36.2041   101
36.2141    92
36.2241    95
36.2341    96
36.2441    79
36.2541    95
36.2641    94
36.2741    95
36.2841    95
36.2941    84
36.3041    82
36.3141    80
36.3241    97
36.3341    90
36.3441    85
36.3541    93
36.3641    92
36.3741   102
36.3841    79
36.3941    69
36.4041    86
36.4141   102
36.4241    91
36.4341    88
36.4441    90
36.4541    95
36.4641    95
36.4741    81
36.4841    86
36.4941    96
36.5041   108
36.5141    89
36.5241    90
36.5341    82
36.5441    81
36.5541    86
36.5641    80
36.5741    85
36.5841    92
36.5941    87
36.6041    93
36.6141    92
36.6241    84
36.6341    92
36.6441    89
36.6541    64
36.6641    97
36.6741    94
36.6841    85
36.6941    89
36.7041    74
36.7141    66
36.7241    76
36.7341    76
36.7441    82
36.7541    74
36.7641    85
36.7741    90
36.7841    94
36.7941    85
36.8041    80
36.8141    85
36.8241    77
36.8341    84
36.8441    76
36.8541    78
36.8641   102
36.8741    81
36.8841    90
36.8941    82
36.9041    77
36.9141    62
36.9241    83
36.9341    79
36.9441    87
36.9541    80
36.9641    68
36.9741    77
36.9841    82
36.9941    70
37.0041    85
37.0141    85
37.0241    70
37.0341    74
37.0441    83
37.0541    91
37.0641    62
37.0741    75
37.0841    94
37.0941    73
37.1041    70
37.1141    80
37.1241    82
37.1341    79
37.1441    70
37.1541    79
37.1641    72
37.1741    76
37.1841    47
37.1941    72
37.2041    71
37.2141    81
37.2241    72
37.2341    77
37.2441    72
37.2541    66
37.2641    64
37.2741    92
37.2841    59
37.2941    67
37.3041    73
37.3141    67
37.3241    71
37.3341    68
37.3441    76
37.3541    60
37.3641    63
37.3741    84
37.3841    69
37.3941    71
37.4041    77
37.4141    62
37.4241    61
37.4341    66
37.4441    67
37.4541    77
37.4641    72
37.4741    53
37.4841    63
37.4941    63
37.5041    64
37.5141    70
37.5241    53
37.5341    68
37.5441    69
37.5541    77
37.5641    59
37.5741    64
37.5841    69
37.5941    60
37.6041    65
37.6141    58
37.6241    76
37.6341    48
37.6441    71
37.6541    57
37.6641    71
37.6741    60
37.6841    63
37.6941    72
37.7041    74
37.7141    73
37.7241    62
37.7341    76
37.7441    78
37.7541    57
37.7641    58
37.7741    59
37.7841    67
37.7941    74
37.8041    57
37.8141    72
37.8241    83
37.8341    58
37.8441    60
37.8541    66
37.8641    72
37.8741    64
37.8841    47
37.8941    57
37.9041    69
37.9141    56
37.9241    53
37.9341    75
37.9441    53
37.9541    57
37.9641    65
37.9741    57
37.9841    56
37.9941    60
38.0041    51
38.0141    45
38.0241    64
38.0341    61
38.0441    50
38.0541    56
38.0641    61
38.0741    49
38.0841    63
38.0941    51
38.1041    66
38.1141    59
38.1241    65
38.1341    49
38.1441    56
38.1541    54
38.1641    58
38.1741    55
38.1841    50
38.1941    49
38.2041    50
38.2141    52
38.2241    58
38.2341    59
38.2441    60
38.2541    39
38.2641    51
38.2741    68
38.2841    43
38.2941    55
38.3041    57
38.3141    42
38.3241    53
38.3341    60
38.3441    54
38.3541    62
38.3641    46
38.3741    57
38.3841    52
38.3941    43
38.4041    66
38.4141    57
38.4241    57
38.4341    53
38.4441    57
38.4541    56
38.4641    47
38.4741    42
38.4841    45
38.4941    44
38.5041    47
38.5141    42
38.5241    39
38.5341    35
38.5441    59
38.5541    55
38.5641    47
38.5741    60
38.5841    39
38.5941    51
38.6041    61
38.6141    53
38.6241    60
38.6341    50
38.6441    44
38.6541    48
38.6641    39
38.6741    44
38.6841    33
38.6941    44
38.7041    50
38.7141    53
38.7241    42
38.7341    42
38.7441    37
38.7541    44
38.7641    52
38.7741    51
38.7841    46
38.7941    50
38.8041    55
38.8141    48
38.8241    45
38.8341    46
38.8441    43
38.8541    52
38.8641    48
38.8741    42
38.8841    44
38.8941    34
38.9041    39
38.9141    40
38.9241    44
38.9341    52
38.9441    48
38.9541    42
38.9641    39
38.9741    29
38.9841    40
38.9941    43
39.0041    44
39.0141    41
39.0241    52
39.0341    42
39.0441    49
39.0541    43
39.0641    37
39.0741    38
39.0841    39
39.0941    41
39.1041    40
39.1141    37
39.1241    47
39.1341    38
39.1441    42
39.1541    33
39.1641    46
39.1741    44
39.1841    46
39.1941    36
39.2041    39
39.2141    46
39.2241    51
39.2341    41
39.2441    45
39.2541    41
39.2641    53
39.2741    46
39.2841    45
39.2941    34
39.3041    36
39.3141    42
39.3241    32
39.3341    45
39.3441    36
39.3541    49
39.3641    41
39.3741    36
39.3841    41
39.3941    41
39.4041    35
39.4141    46
39.4241    45
39.4341    38
39.4441    34
39.4541    34
39.4641    46
39.4741    51
39.4841    44
39.4941    41
39.5041    42
39.5141    24
39.5241    32
39.5341    35
39.5441    25
39.5541    45
39.5641    39
39.5741    41
39.5841    43
39.5941    40
39.6041    32
39.6141    22
39.6241    18
39.6341    36
39.6441    43
39.6541    32
39.6641    36
39.6741    43
39.6841    35
39.6941    43
39.7041    32
39.7141    30
39.7241    22
39.7341    35
39.7441    44
39.7541    34
39.7641    31
39.7741    41
39.7841    31
39.7941    34
39.8041    36
39.8141    24
39.8241    37
39.8341    40
39.8441    36
39.8541    37
39.8641    30
39.8741    34
39.8841    34
39.8941    35
39.9041    26
39.9141    36
39.9241    27
39.9341    30
39.9441    26
39.9541    28
39.9641    22
39.9741    32
39.9841    33
39.9941    30
