Bruker Nano GmbH Berlin, Germany
Esprit 1.9

Date: 5/14/2021 3:46:02 PM
Real time: 16146
Life time: 15012
Pulse density: 103582


Detector type: XFlash 430
Window type: Custom type
Detector thickness: 0.45
Si dead layer:0.029

Calibration, lin.: 10
Calibration, abs.: -955.9
Mn FWHM: 137.05
Fano factor: 0.121
Channels: 4095

Energy Counts
-0.9559     0
-0.9459     0
-0.9359     0
-0.9259     0
-0.9159     0
-0.9059     0
-0.8959     0
-0.8859     0
-0.8759     0
-0.8659     0
-0.8559     0
-0.8459     0
-0.8359     0
-0.8259     0
-0.8159     0
-0.8059     0
-0.7959     0
-0.7859     0
-0.7759     0
-0.7659     0
-0.7559     0
-0.7459     0
-0.7359     0
-0.7259     0
-0.7159     0
-0.7059     0
-0.6959     0
-0.6859     0
-0.6759     0
-0.6659     0
-0.6559     0
-0.6459     0
-0.6359     0
-0.6259     0
-0.6159     0
-0.6059     0
-0.5959     0
-0.5859     0
-0.5759     0
-0.5659     0
-0.5559     0
-0.5459     0
-0.5359     0
-0.5259     0
-0.5159     0
-0.5059     0
-0.4959     0
-0.4859     0
-0.4759     0
-0.4659     0
-0.4559     0
-0.4459     0
-0.4359     0
-0.4259     0
-0.4159     0
-0.4059     0
-0.3959     0
-0.3859     0
-0.3759     0
-0.3659     0
-0.3559     0
-0.3459     0
-0.3359     0
-0.3259     0
-0.3159     0
-0.3059     0
-0.2959     0
-0.2859     0
-0.2759     0
-0.2659     0
-0.2559     0
-0.2459     0
-0.2359     0
-0.2259     0
-0.2159     0
-0.2059     0
-0.1959     0
-0.1859     0
-0.1759     0
-0.1659     0
-0.1559     0
-0.1459     0
-0.1359     0
-0.1259     0
-0.1159     3
-0.1059     5
-0.0959    40
-0.0859   181
-0.0759   530
-0.0659  1693
-0.0559  4307
-0.0459  9625
-0.0359 18064
-0.0259 28609
-0.0159 39296
-0.0059 45575
 0.0041 46357
 0.0141 39660
 0.0241 29586
 0.0341 18584
 0.0441 10167
 0.0541  4733
 0.0641  1852
 0.0741   646
 0.0841   202
 0.0941    51
 0.1041    15
 0.1141    10
 0.1241    11
 0.1341     8
 0.1441     5
 0.1541    10
 0.1641     0
 0.1741    17
 0.1841   144
 0.1941   287
 0.2041   240
 0.2141   282
 0.2241   294
 0.2341   264
 0.2441   256
 0.2541   260
 0.2641   257
 0.2741   255
 0.2841   272
 0.2941   268
 0.3041   272
 0.3141   265
 0.3241   247
 0.3341   259
 0.3441   248
 0.3541   253
 0.3641   255
 0.3741   234
 0.3841   221
 0.3941   244
 0.4041   257
 0.4141   229
 0.4241   252
 0.4341   251
 0.4441   236
 0.4541   237
 0.4641   218
 0.4741   228
 0.4841   226
 0.4941   223
 0.5041   228
 0.5141   223
 0.5241   218
 0.5341   213
 0.5441   208
 0.5541   224
 0.5641   229
 0.5741   228
 0.5841   232
 0.5941   226
 0.6041   213
 0.6141   198
 0.6241   196
 0.6341   201
 0.6441   215
 0.6541   217
 0.6641   208
 0.6741   214
 0.6841   214
 0.6941   196
 0.7041   199
 0.7141   211
 0.7241   196
 0.7341   206
 0.7441   206
 0.7541   210
 0.7641   223
 0.7741   209
 0.7841   189
 0.7941   178
 0.8041   190
 0.8141   179
 0.8241   181
 0.8341   194
 0.8441   197
 0.8541   191
 0.8641   184
 0.8741   192
 0.8841   190
 0.8941   186
 0.9041   173
 0.9141   179
 0.9241   181
 0.9341   184
 0.9441   189
 0.9541   165
 0.9641   170
 0.9741   169
 0.9841   151
 0.9941   165
 1.0041   186
 1.0141   183
 1.0241   160
 1.0341   177
 1.0441   182
 1.0541   159
 1.0641   146
 1.0741   175
 1.0841   156
 1.0941   191
 1.1041   180
 1.1141   176
 1.1241   186
 1.1341   150
 1.1441   166
 1.1541   155
 1.1641   165
 1.1741   156
 1.1841   156
 1.1941   163
 1.2041   165
 1.2141   154
 1.2241   154
 1.2341   154
 1.2441   174
 1.2541   152
 1.2641   147
 1.2741   170
 1.2841   157
 1.2941   153
 1.3041   155
 1.3141   163
 1.3241   144
 1.3341   162
 1.3441   154
 1.3541   146
 1.3641   136
 1.3741   137
 1.3841   151
 1.3941   153
 1.4041   159
 1.4141   168
 1.4241   142
 1.4341   146
 1.4441   143
 1.4541   167
 1.4641   148
 1.4741   153
 1.4841   151
 1.4941   149
 1.5041   136
 1.5141   146
 1.5241   148
 1.5341   160
 1.5441   133
 1.5541   161
 1.5641   156
 1.5741   149
 1.5841   143
 1.5941   156
 1.6041   146
 1.6141   170
 1.6241   149
 1.6341   160
 1.6441   146
 1.6541   177
 1.6641   200
 1.6741   244
 1.6841   328
 1.6941   388
 1.7041   448
 1.7141   576
 1.7241   601
 1.7341   653
 1.7441   591
 1.7541   553
 1.7641   533
 1.7741   470
 1.7841   381
 1.7941   305
 1.8041   279
 1.8141   235
 1.8241   229
 1.8341   197
 1.8441   187
 1.8541   180
 1.8641   186
 1.8741   167
 1.8841   141
 1.8941   169
 1.9041   139
 1.9141   149
 1.9241   156
 1.9341   172
 1.9441   160
 1.9541   152
 1.9641   151
 1.9741   154
 1.9841   168
 1.9941   174
 2.0041   179
 2.0141   178
 2.0241   168
 2.0341   183
 2.0441   174
 2.0541   165
 2.0641   153
 2.0741   170
 2.0841   152
 2.0941   140
 2.1041   137
 2.1141   137
 2.1241   142
 2.1341   124
 2.1441   150
 2.1541   146
 2.1641   137
 2.1741   131
 2.1841   127
 2.1941   130
 2.2041   136
 2.2141   124
 2.2241   138
 2.2341   129
 2.2441   148
 2.2541   129
 2.2641   132
 2.2741   119
 2.2841   129
 2.2941   137
 2.3041   118
 2.3141    93
 2.3241   104
 2.3341   106
 2.3441   105
 2.3541   117
 2.3641   129
 2.3741   119
 2.3841   130
 2.3941   133
 2.4041   109
 2.4141   129
 2.4241   116
 2.4341   109
 2.4441    98
 2.4541   113
 2.4641   114
 2.4741   117
 2.4841   117
 2.4941   134
 2.5041   116
 2.5141   113
 2.5241   133
 2.5341   114
 2.5441   119
 2.5541   111
 2.5641   113
 2.5741   124
 2.5841   109
 2.5941   105
 2.6041   107
 2.6141   113
 2.6241   128
 2.6341   110
 2.6441   114
 2.6541   113
 2.6641   107
 2.6741   118
 2.6841   108
 2.6941   107
 2.7041    92
 2.7141   126
 2.7241   122
 2.7341   112
 2.7441   118
 2.7541   118
 2.7641   117
 2.7741   115
 2.7841   117
 2.7941   104
 2.8041   107
 2.8141   114
 2.8241   118
 2.8341   107
 2.8441   130
 2.8541   121
 2.8641   122
 2.8741   101
 2.8841   114
 2.8941   112
 2.9041   110
 2.9141   102
 2.9241   100
 2.9341   116
 2.9441   110
 2.9541    99
 2.9641    99
 2.9741    82
 2.9841    95
 2.9941   119
 3.0041   101
 3.0141   104
 3.0241   103
 3.0341   106
 3.0441   107
 3.0541    95
 3.0641    89
 3.0741   100
 3.0841   114
 3.0941   112
 3.1041   107
 3.1141   109
 3.1241    95
 3.1341    82
 3.1441    70
 3.1541    97
 3.1641    91
 3.1741    84
 3.1841    96
 3.1941    90
 3.2041    94
 3.2141   114
 3.2241   102
 3.2341   143
 3.2441   151
 3.2541   164
 3.2641   178
 3.2741   188
 3.2841   236
 3.2941   227
 3.3041   218
 3.3141   222
 3.3241   228
 3.3341   213
 3.3441   207
 3.3541   186
 3.3641   162
 3.3741   163
 3.3841   116
 3.3941   111
 3.4041    95
 3.4141   113
 3.4241    98
 3.4341    88
 3.4441    93
 3.4541    92
 3.4641    83
 3.4741    87
 3.4841    90
 3.4941    86
 3.5041   100
 3.5141   112
 3.5241   128
 3.5341   135
 3.5441   162
 3.5541   204
 3.5641   221
 3.5741   297
 3.5841   393
 3.5941   544
 3.6041   715
 3.6141   991
 3.6241  1267
 3.6341  1623
 3.6441  2003
 3.6541  2403
 3.6641  2718
 3.6741  2880
 3.6841  3039
 3.6941  3056
 3.7041  2936
 3.7141  2643
 3.7241  2352
 3.7341  2037
 3.7441  1725
 3.7541  1314
 3.7641   949
 3.7741   737
 3.7841   523
 3.7941   391
 3.8041   270
 3.8141   166
 3.8241   162
 3.8341   146
 3.8441   104
 3.8541    88
 3.8641    95
 3.8741    89
 3.8841   126
 3.8941   142
 3.9041   157
 3.9141   201
 3.9241   228
 3.9341   251
 3.9441   289
 3.9541   365
 3.9641   437
 3.9741   493
 3.9841   544
 3.9941   589
 4.0041   585
 4.0141   632
 4.0241   646
 4.0341   573
 4.0441   521
 4.0541   461
 4.0641   405
 4.0741   377
 4.0841   283
 4.0941   199
 4.1041   178
 4.1141   129
 4.1241   107
 4.1341   111
 4.1441   100
 4.1541    81
 4.1641    79
 4.1741    69
 4.1841    65
 4.1941    62
 4.2041    61
 4.2141    54
 4.2241    71
 4.2341    62
 4.2441    78
 4.2541    62
 4.2641    58
 4.2741    63
 4.2841    51
 4.2941    59
 4.3041    62
 4.3141    76
 4.3241    57
 4.3341    58
 4.3441    58
 4.3541    79
 4.3641    79
 4.3741    77
 4.3841    89
 4.3941    92
 4.4041   123
 4.4141   139
 4.4241   184
 4.4341   204
 4.4441   221
 4.4541   277
 4.4641   324
 4.4741   291
 4.4841   382
 4.4941   395
 4.5041   406
 4.5141   367
 4.5241   385
 4.5341   362
 4.5441   320
 4.5541   292
 4.5641   253
 4.5741   218
 4.5841   193
 4.5941   143
 4.6041   123
 4.6141   110
 4.6241    79
 4.6341    97
 4.6441    85
 4.6541    90
 4.6641    78
 4.6741    97
 4.6841    69
 4.6941    74
 4.7041    68
 4.7141    96
 4.7241    71
 4.7341    68
 4.7441    71
 4.7541    70
 4.7641    85
 4.7741    71
 4.7841    90
 4.7941    73
 4.8041    79
 4.8141    81
 4.8241    91
 4.8341    94
 4.8441   103
 4.8541   100
 4.8641   115
 4.8741   112
 4.8841   132
 4.8941   142
 4.9041   140
 4.9141   135
 4.9241   134
 4.9341   130
 4.9441   140
 4.9541   156
 4.9641   137
 4.9741   126
 4.9841   114
 4.9941   104
 5.0041    96
 5.0141   101
 5.0241    99
 5.0341    83
 5.0441    77
 5.0541    65
 5.0641    65
 5.0741    66
 5.0841    75
 5.0941    77
 5.1041    61
 5.1141    82
 5.1241    66
 5.1341    59
 5.1441    63
 5.1541    83
 5.1641    69
 5.1741    76
 5.1841    77
 5.1941    79
 5.2041    81
 5.2141    78
 5.2241    88
 5.2341    72
 5.2441    91
 5.2541    90
 5.2641    76
 5.2741    93
 5.2841    87
 5.2941    94
 5.3041    96
 5.3141    73
 5.3241    97
 5.3341    94
 5.3441    86
 5.3541   101
 5.3641    92
 5.3741   111
 5.3841    90
 5.3941   105
 5.4041   107
 5.4141   113
 5.4241   110
 5.4341   107
 5.4441   105
 5.4541   103
 5.4641   108
 5.4741    89
 5.4841   100
 5.4941   103
 5.5041    94
 5.5141    78
 5.5241    66
 5.5341    92
 5.5441    98
 5.5541    68
 5.5641    70
 5.5741    71
 5.5841    81
 5.5941    72
 5.6041    75
 5.6141    81
 5.6241    90
 5.6341    72
 5.6441    85
 5.6541    85
 5.6641    82
 5.6741    82
 5.6841   103
 5.6941    84
 5.7041    81
 5.7141    80
 5.7241   111
 5.7341   115
 5.7441   108
 5.7541   148
 5.7641   118
 5.7741   158
 5.7841   214
 5.7941   256
 5.8041   264
 5.8141   352
 5.8241   414
 5.8341   462
 5.8441   568
 5.8541   593
 5.8641   647
 5.8741   675
 5.8841   661
 5.8941   748
 5.9041   770
 5.9141   691
 5.9241   660
 5.9341   601
 5.9441   530
 5.9541   482
 5.9641   405
 5.9741   350
 5.9841   291
 5.9941   248
 6.0041   216
 6.0141   181
 6.0241   147
 6.0341   161
 6.0441   119
 6.0541   122
 6.0641   108
 6.0741    95
 6.0841   110
 6.0941   130
 6.1041   122
 6.1141   117
 6.1241   114
 6.1341   105
 6.1441   142
 6.1541   144
 6.1641   165
 6.1741   182
 6.1841   181
 6.1941   235
 6.2041   259
 6.2141   365
 6.2241   465
 6.2341   694
 6.2441   904
 6.2541  1292
 6.2641  1691
 6.2741  2381
 6.2841  3232
 6.2941  4239
 6.3041  5534
 6.3141  7094
 6.3241  8558
 6.3341 10212
 6.3441 12060
 6.3541 13821
 6.3641 15333
 6.3741 16490
 6.3841 17339
 6.3941 17801
 6.4041 17860
 6.4141 17299
 6.4241 16042
 6.4341 14874
 6.4441 13356
 6.4541 11671
 6.4641  9560
 6.4741  8122
 6.4841  6499
 6.4941  5158
 6.5041  3830
 6.5141  2985
 6.5241  2098
 6.5341  1595
 6.5441  1055
 6.5541   727
 6.5641   573
 6.5741   414
 6.5841   290
 6.5941   218
 6.6041   193
 6.6141   146
 6.6241   181
 6.6341   149
 6.6441   117
 6.6541   121
 6.6641   128
 6.6741   136
 6.6841   119
 6.6941   152
 6.7041   129
 6.7141   127
 6.7241   116
 6.7341   124
 6.7441   160
 6.7541   138
 6.7641   144
 6.7741   146
 6.7841   154
 6.7941   152
 6.8041   148
 6.8141   168
 6.8241   182
 6.8341   211
 6.8441   191
 6.8541   200
 6.8641   231
 6.8741   225
 6.8841   292
 6.8941   331
 6.9041   397
 6.9141   479
 6.9241   594
 6.9341   735
 6.9441   878
 6.9541  1014
 6.9641  1293
 6.9741  1490
 6.9841  1840
 6.9941  2047
 7.0041  2368
 7.0141  2629
 7.0241  2766
 7.0341  2809
 7.0441  3076
 7.0541  3160
 7.0641  3056
 7.0741  2896
 7.0841  2821
 7.0941  2461
 7.1041  2235
 7.1141  1949
 7.1241  1737
 7.1341  1493
 7.1441  1236
 7.1541   992
 7.1641   765
 7.1741   670
 7.1841   479
 7.1941   415
 7.2041   359
 7.2141   270
 7.2241   253
 7.2341   209
 7.2441   188
 7.2541   184
 7.2641   159
 7.2741   169
 7.2841   168
 7.2941   159
 7.3041   162
 7.3141   153
 7.3241   183
 7.3341   190
 7.3441   205
 7.3541   240
 7.3641   230
 7.3741   240
 7.3841   218
 7.3941   214
 7.4041   223
 7.4141   235
 7.4241   237
 7.4341   241
 7.4441   238
 7.4541   216
 7.4641   258
 7.4741   229
 7.4841   194
 7.4941   209
 7.5041   191
 7.5141   192
 7.5241   188
 7.5341   194
 7.5441   160
 7.5541   191
 7.5641   159
 7.5741   140
 7.5841   164
 7.5941   158
 7.6041   156
 7.6141   175
 7.6241   154
 7.6341   156
 7.6441   175
 7.6541   161
 7.6641   146
 7.6741   165
 7.6841   160
 7.6941   158
 7.7041   169
 7.7141   176
 7.7241   144
 7.7341   184
 7.7441   155
 7.7541   210
 7.7641   210
 7.7741   203
 7.7841   177
 7.7941   186
 7.8041   223
 7.8141   195
 7.8241   231
 7.8341   238
 7.8441   211
 7.8541   216
 7.8641   212
 7.8741   233
 7.8841   246
 7.8941   243
 7.9041   256
 7.9141   261
 7.9241   287
 7.9341   304
 7.9441   302
 7.9541   322
 7.9641   360
 7.9741   361
 7.9841   375
 7.9941   425
 8.0041   454
 8.0141   476
 8.0241   528
 8.0341   571
 8.0441   614
 8.0541   658
 8.0641   693
 8.0741   740
 8.0841   765
 8.0941   810
 8.1041   869
 8.1141   908
 8.1241   965
 8.1341   946
 8.1441   931
 8.1541   989
 8.1641  1004
 8.1741  1009
 8.1841  1019
 8.1941  1045
 8.2041  1107
 8.2141  1054
 8.2241  1091
 8.2341  1123
 8.2441  1177
 8.2541  1171
 8.2641  1158
 8.2741  1297
 8.2841  1360
 8.2941  1525
 8.3041  1637
 8.3141  1737
 8.3241  1813
 8.3341  2015
 8.3441  2197
 8.3541  2274
 8.3641  2362
 8.3741  2495
 8.3841  2501
 8.3941  2509
 8.4041  2435
 8.4141  2369
 8.4241  2201
 8.4341  2105
 8.4441  1896
 8.4541  1657
 8.4641  1501
 8.4741  1298
 8.4841  1090
 8.4941  1009
 8.5041   817
 8.5141   689
 8.5241   604
 8.5341   559
 8.5441   463
 8.5541   409
 8.5641   368
 8.5741   359
 8.5841   327
 8.5941   334
 8.6041   332
 8.6141   334
 8.6241   298
 8.6341   314
 8.6441   331
 8.6541   351
 8.6641   321
 8.6741   318
 8.6841   299
 8.6941   304
 8.7041   297
 8.7141   276
 8.7241   283
 8.7341   280
 8.7441   254
 8.7541   241
 8.7641   253
 8.7741   257
 8.7841   252
 8.7941   237
 8.8041   217
 8.8141   208
 8.8241   216
 8.8341   246
 8.8441   234
 8.8541   236
 8.8641   232
 8.8741   249
 8.8841   229
 8.8941   251
 8.9041   245
 8.9141   254
 8.9241   256
 8.9341   249
 8.9441   246
 8.9541   288
 8.9641   279
 8.9741   290
 8.9841   291
 8.9941   292
 9.0041   300
 9.0141   280
 9.0241   289
 9.0341   260
 9.0441   287
 9.0541   306
 9.0641   328
 9.0741   323
 9.0841   343
 9.0941   373
 9.1041   373
 9.1141   377
 9.1241   397
 9.1341   397
 9.1441   405
 9.1541   430
 9.1641   475
 9.1741   473
 9.1841   505
 9.1941   534
 9.2041   554
 9.2141   572
 9.2241   588
 9.2341   651
 9.2441   663
 9.2541   672
 9.2641   718
 9.2741   771
 9.2841   818
 9.2941   826
 9.3041   844
 9.3141   859
 9.3241   910
 9.3341   962
 9.3441   916
 9.3541   974
 9.3641   973
 9.3741  1037
 9.3841  1003
 9.3941  1035
 9.4041  1044
 9.4141  1036
 9.4241  1063
 9.4341  1092
 9.4441  1066
 9.4541  1106
 9.4641  1147
 9.4741  1166
 9.4841  1146
 9.4941  1191
 9.5041  1242
 9.5141  1263
 9.5241  1264
 9.5341  1356
 9.5441  1392
 9.5541  1456
 9.5641  1549
 9.5741  1594
 9.5841  1693
 9.5941  1832
 9.6041  1848
 9.6141  1912
 9.6241  2029
 9.6341  2172
 9.6441  2227
 9.6541  2252
 9.6641  2360
 9.6741  2294
 9.6841  2192
 9.6941  2179
 9.7041  2105
 9.7141  1962
 9.7241  1915
 9.7341  1808
 9.7441  1630
 9.7541  1530
 9.7641  1406
 9.7741  1258
 9.7841  1233
 9.7941  1127
 9.8041  1013
 9.8141   990
 9.8241   983
 9.8341   928
 9.8441   905
 9.8541   866
 9.8641   919
 9.8741   926
 9.8841   891
 9.8941   919
 9.9041   975
 9.9141  1009
 9.9241  1000
 9.9341  1027
 9.9441  1036
 9.9541  1033
 9.9641   984
 9.9741   946
 9.9841   924
 9.9941   902
10.0041   852
10.0141   813
10.0241   738
10.0341   650
10.0441   608
10.0541   570
10.0641   480
10.0741   409
10.0841   401
10.0941   342
10.1041   295
10.1141   266
10.1241   253
10.1341   236
10.1441   208
10.1541   210
10.1641   201
10.1741   184
10.1841   207
10.1941   198
10.2041   193
10.2141   182
10.2241   173
10.2341   158
10.2441   157
10.2541   165
10.2641   156
10.2741   136
10.2841   138
10.2941   134
10.3041   131
10.3141   135
10.3241   159
10.3341   130
10.3441   128
10.3541   123
10.3641   134
10.3741   143
10.3841   131
10.3941   126
10.4041   118
10.4141   131
10.4241   133
10.4341   134
10.4441   133
10.4541   150
10.4641   142
10.4741   135
10.4841   146
10.4941   139
10.5041   156
10.5141   156
10.5241   142
10.5341   157
10.5441   162
10.5541   174
10.5641   159
10.5741   164
10.5841   164
10.5941   157
10.6041   152
10.6141   147
10.6241   173
10.6341   150
10.6441   141
10.6541   155
10.6641   154
10.6741   165
10.6841   151
10.6941   171
10.7041   167
10.7141   171
10.7241   169
10.7341   178
10.7441   202
10.7541   194
10.7641   187
10.7741   188
10.7841   195
10.7941   198
10.8041   204
10.8141   198
10.8241   219
10.8341   221
10.8441   229
10.8541   226
10.8641   215
10.8741   235
10.8841   238
10.8941   222
10.9041   230
10.9141   249
10.9241   251
10.9341   247
10.9441   247
10.9541   245
10.9641   237
10.9741   243
10.9841   236
10.9941   218
11.0041   220
11.0141   213
11.0241   220
11.0341   222
11.0441   202
11.0541   209
11.0641   207
11.0741   199
11.0841   193
11.0941   229
11.1041   226
11.1141   193
11.1241   192
11.1341   182
11.1441   215
11.1541   235
11.1641   238
11.1741   246
11.1841   257
11.1941   285
11.2041   285
11.2141   302
11.2241   299
11.2341   305
11.2441   326
11.2541   346
11.2641   319
11.2741   319
11.2841   339
11.2941   345
11.3041   327
11.3141   320
11.3241   296
11.3341   290
11.3441   292
11.3541   280
11.3641   271
11.3741   235
11.3841   224
11.3941   211
11.4041   208
11.4141   218
11.4241   214
11.4341   196
11.4441   182
11.4541   182
11.4641   178
11.4741   172
11.4841   177
11.4941   170
11.5041   163
11.5141   166
11.5241   173
11.5341   175
11.5441   174
11.5541   181
11.5641   169
11.5741   180
11.5841   177
11.5941   192
11.6041   186
11.6141   175
11.6241   184
11.6341   189
11.6441   184
11.6541   160
11.6641   166
11.6741   168
11.6841   167
11.6941   173
11.7041   176
11.7141   164
11.7241   138
11.7341   143
11.7441   148
11.7541   157
11.7641   147
11.7741   146
11.7841   137
11.7941   144
11.8041   143
11.8141   128
11.8241   132
11.8341   142
11.8441   139
11.8541   139
11.8641   132
11.8741   135
11.8841   155
11.8941   150
11.9041   146
11.9141   147
11.9241   134
11.9341   132
11.9441   133
11.9541   121
11.9641   140
11.9741   147
11.9841   130
11.9941   117
12.0041   127
12.0141   134
12.0241   120
12.0341   125
12.0441   143
12.0541   137
12.0641   123
12.0741   136
12.0841   131
12.0941   121
12.1041   115
12.1141   112
12.1241   122
12.1341   137
12.1441   134
12.1541   138
12.1641   129
12.1741   130
12.1841   128
12.1941   134
12.2041   150
12.2141   144
12.2241   124
12.2341   125
12.2441   147
12.2541   146
12.2641   137
12.2741   132
12.2841   129
12.2941   136
12.3041   129
12.3141   129
12.3241   121
12.3341   113
12.3441   117
12.3541   124
12.3641   121
12.3741   113
12.3841   126
12.3941   126
12.4041   120
12.4141   119
12.4241   129
12.4341   139
12.4441   131
12.4541   123
12.4641   130
12.4741   133
12.4841   134
12.4941   146
12.5041   146
12.5141   145
12.5241   147
12.5341   161
12.5441   151
12.5541   134
12.5641   149
12.5741   151
12.5841   155
12.5941   150
12.6041   148
12.6141   140
12.6241   132
12.6341   143
12.6441   133
12.6541   136
12.6641   141
12.6741   142
12.6841   151
12.6941   154
12.7041   151
12.7141   143
12.7241   131
12.7341   138
12.7441   148
12.7541   149
12.7641   154
12.7741   155
12.7841   151
12.7941   145
12.8041   142
12.8141   148
12.8241   158
12.8341   160
12.8441   159
12.8541   159
12.8641   160
12.8741   156
12.8841   149
12.8941   151
12.9041   153
12.9141   153
12.9241   164
12.9341   178
12.9441   175
12.9541   165
12.9641   160
12.9741   156
12.9841   156
12.9941   158
13.0041   161
13.0141   168
13.0241   169
13.0341   162
13.0441   158
13.0541   160
13.0641   164
13.0741   179
13.0841   180
13.0941   160
13.1041   152
13.1141   168
13.1241   177
13.1341   166
13.1441   172
13.1541   172
13.1641   169
13.1741   174
13.1841   177
13.1941   174
13.2041   178
13.2141   181
13.2241   189
13.2341   196
13.2441   196
13.2541   199
13.2641   197
13.2741   211
13.2841   221
13.2941   231
13.3041   229
13.3141   230
13.3241   245
13.3341   239
13.3441   248
13.3541   266
13.3641   252
13.3741   254
13.3841   249
13.3941   244
13.4041   252
13.4141   253
13.4241   245
13.4341   248
13.4441   243
13.4541   226
13.4641   211
13.4741   213
13.4841   222
13.4941   225
13.5041   216
13.5141   218
13.5241   215
13.5341   187
13.5441   185
13.5541   194
13.5641   190
13.5741   188
13.5841   184
13.5941   177
13.6041   186
13.6141   196
13.6241   191
13.6341   191
13.6441   197
13.6541   189
13.6641   189
13.6741   193
13.6841   194
13.6941   207
13.7041   207
13.7141   204
13.7241   183
13.7341   184
13.7441   212
13.7541   208
13.7641   192
13.7741   194
13.7841   207
13.7941   204
13.8041   217
13.8141   228
13.8241   224
13.8341   217
13.8441   214
13.8541   204
13.8641   192
13.8741   199
13.8841   212
13.8941   222
13.9041   217
13.9141   211
13.9241   219
13.9341   221
13.9441   215
13.9541   240
13.9641   262
13.9741   248
13.9841   256
13.9941   276
14.0041   265
14.0141   274
14.0241   296
14.0341   296
14.0441   303
14.0541   313
14.0641   307
14.0741   338
14.0841   372
14.0941   374
14.1041   382
14.1141   383
14.1241   376
14.1341   376
14.1441   382
14.1541   392
14.1641   395
14.1741   363
14.1841   347
14.1941   367
14.2041   347
14.2141   336
14.2241   329
14.2341   307
14.2441   301
14.2541   304
14.2641   315
14.2741   307
14.2841   292
14.2941   278
14.3041   261
14.3141   256
14.3241   276
14.3341   250
14.3441   233
14.3541   240
14.3641   228
14.3741   235
14.3841   238
14.3941   228
14.4041   245
14.4141   257
14.4241   243
14.4341   240
14.4441   235
14.4541   235
14.4641   232
14.4741   229
14.4841   243
14.4941   246
14.5041   241
14.5141   227
14.5241   219
14.5341   221
14.5441   238
14.5541   259
14.5641   257
14.5741   263
14.5841   265
14.5941   256
14.6041   247
14.6141   235
14.6241   221
14.6341   230
14.6441   253
14.6541   261
14.6641   243
14.6741   252
14.6841   249
14.6941   227
14.7041   240
14.7141   249
14.7241   264
14.7341   251
14.7441   219
14.7541   243
14.7641   275
14.7741   270
14.7841   276
14.7941   285
14.8041   280
14.8141   281
14.8241   289
14.8341   283
14.8441   292
14.8541   306
14.8641   319
14.8741   305
14.8841   284
14.8941   283
14.9041   300
14.9141   304
14.9241   297
14.9341   291
14.9441   290
14.9541   330
14.9641   302
14.9741   275
14.9841   300
14.9941   316
15.0041   312
15.0141   311
15.0241   277
15.0341   281
15.0441   286
15.0541   279
15.0641   288
15.0741   279
15.0841   282
15.0941   300
15.1041   302
15.1141   281
15.1241   265
15.1341   260
15.1441   292
15.1541   292
15.1641   272
15.1741   258
15.1841   268
15.1941   278
15.2041   278
15.2141   289
15.2241   288
15.2341   276
15.2441   278
15.2541   286
15.2641   296
15.2741   297
15.2841   284
15.2941   287
15.3041   290
15.3141   272
15.3241   278
15.3341   295
15.3441   301
15.3541   303
15.3641   287
15.3741   273
15.3841   282
15.3941   300
15.4041   313
15.4141   310
15.4241   287
15.4341   294
15.4441   297
15.4541   292
15.4641   299
15.4741   306
15.4841   303
15.4941   282
15.5041   309
15.5141   314
15.5241   325
15.5341   344
15.5441   330
15.5541   333
15.5641   342
15.5741   375
15.5841   389
15.5941   391
15.6041   392
15.6141   433
15.6241   452
15.6341   466
15.6441   469
15.6541   474
15.6641   493
15.6741   493
15.6841   512
15.6941   563
15.7041   563
15.7141   562
15.7241   581
15.7341   563
15.7441   599
15.7541   621
15.7641   598
15.7741   598
15.7841   598
15.7941   547
15.8041   549
15.8141   574
15.8241   531
15.8341   535
15.8441   508
15.8541   466
15.8641   466
15.8741   440
15.8841   435
15.8941   443
15.9041   434
15.9141   437
15.9241   419
15.9341   386
15.9441   369
15.9541   361
15.9641   349
15.9741   365
15.9841   356
15.9941   357
16.0041   359
16.0141   350
16.0241   330
16.0341   350
16.0441   349
16.0541   372
16.0641   350
16.0741   352
16.0841   345
16.0941   348
16.1041   369
16.1141   353
16.1241   357
16.1341   380
16.1441   354
16.1541   360
16.1641   352
16.1741   368
16.1841   372
16.1941   351
16.2041   343
16.2141   336
16.2241   341
16.2341   370
16.2441   363
16.2541   378
16.2641   353
16.2741   335
16.2841   369
16.2941   378
16.3041   349
16.3141   386
16.3241   369
16.3341   362
16.3441   360
16.3541   353
16.3641   376
16.3741   394
16.3841   370
16.3941   355
16.4041   381
16.4141   385
16.4241   385
16.4341   367
16.4441   365
16.4541   358
16.4641   366
16.4741   373
16.4841   372
16.4941   381
16.5041   351
16.5141   361
16.5241   389
16.5341   372
16.5441   389
16.5541   388
16.5641   392
16.5741   427
16.5841   409
16.5941   395
16.6041   391
16.6141   387
16.6241   405
16.6341   399
16.6441   385
16.6541   381
16.6641   388
16.6741   403
16.6841   403
16.6941   387
16.7041   386
16.7141   366
16.7241   374
16.7341   407
16.7441   426
16.7541   422
16.7641   397
16.7741   381
16.7841   393
16.7941   394
16.8041   404
16.8141   397
16.8241   404
16.8341   419
16.8441   403
16.8541   389
16.8641   400
16.8741   417
16.8841   404
16.8941   408
16.9041   424
16.9141   398
16.9241   381
16.9341   405
16.9441   387
16.9541   384
16.9641   384
16.9741   401
16.9841   428
16.9941   443
17.0041   412
17.0141   399
17.0241   393
17.0341   402
17.0441   418
17.0541   403
17.0641   421
17.0741   427
17.0841   401
17.0941   384
17.1041   421
17.1141   435
17.1241   412
17.1341   418
17.1441   416
17.1541   416
17.1641   433
17.1741   435
17.1841   422
17.1941   437
17.2041   426
17.2141   435
17.2241   404
17.2341   417
17.2441   412
17.2541   412
17.2641   390
17.2741   395
17.2841   404
17.2941   413
17.3041   451
17.3141   422
17.3241   400
17.3341   429
17.3441   415
17.3541   445
17.3641   435
17.3741   427
17.3841   428
17.3941   442
17.4041   444
17.4141   444
17.4241   431
17.4341   435
17.4441   433
17.4541   442
17.4641   443
17.4741   434
17.4841   433
17.4941   413
17.5041   428
17.5141   437
17.5241   436
17.5341   459
17.5441   449
17.5541   460
17.5641   489
17.5741   463
17.5841   465
17.5941   465
17.6041   481
17.6141   468
17.6241   485
17.6341   465
17.6441   480
17.6541   485
17.6641   471
17.6741   463
17.6841   465
17.6941   487
17.7041   469
17.7141   498
17.7241   481
17.7341   496
17.7441   454
17.7541   474
17.7641   447
17.7741   466
17.7841   465
17.7941   449
17.8041   465
17.8141   473
17.8241   470
17.8341   471
17.8441   459
17.8541   470
17.8641   471
17.8741   472
17.8841   466
17.8941   462
17.9041   474
17.9141   450
17.9241   452
17.9341   466
17.9441   461
17.9541   485
17.9641   456
17.9741   474
17.9841   502
17.9941   461
18.0041   445
18.0141   470
18.0241   489
18.0341   462
18.0441   444
18.0541   436
18.0641   469
18.0741   495
18.0841   470
18.0941   454
18.1041   445
18.1141   487
18.1241   492
18.1341   480
18.1441   485
18.1541   479
18.1641   458
18.1741   471
18.1841   495
18.1941   491
18.2041   464
18.2141   482
18.2241   475
18.2341   469
18.2441   484
18.2541   467
18.2641   467
18.2741   447
18.2841   464
18.2941   483
18.3041   495
18.3141   464
18.3241   479
18.3341   469
18.3441   485
18.3541   494
18.3641   486
18.3741   468
18.3841   482
18.3941   503
18.4041   485
18.4141   468
18.4241   460
18.4341   459
18.4441   496
18.4541   513
18.4641   481
18.4741   497
18.4841   496
18.4941   491
18.5041   470
18.5141   458
18.5241   471
18.5341   488
18.5441   515
18.5541   516
18.5641   458
18.5741   487
18.5841   470
18.5941   452
18.6041   480
18.6141   532
18.6241   528
18.6341   490
18.6441   446
18.6541   487
18.6641   514
18.6741   520
18.6841   479
18.6941   496
18.7041   492
18.7141   470
18.7241   479
18.7341   478
18.7441   489
18.7541   477
18.7641   481
18.7741   468
18.7841   509
18.7941   506
18.8041   497
18.8141   508
18.8241   498
18.8341   520
18.8441   529
18.8541   505
18.8641   527
18.8741   517
18.8841   480
18.8941   528
18.9041   511
18.9141   487
18.9241   517
18.9341   471
18.9441   504
18.9541   504
18.9641   476
18.9741   483
18.9841   491
18.9941   523
19.0041   511
19.0141   487
19.0241   527
19.0341   510
19.0441   477
19.0541   492
19.0641   496
19.0741   510
19.0841   488
19.0941   500
19.1041   530
19.1141   515
19.1241   518
19.1341   538
19.1441   530
19.1541   510
19.1641   521
19.1741   492
19.1841   514
19.1941   507
19.2041   536
19.2141   519
19.2241   467
19.2341   503
19.2441   517
19.2541   538
19.2641   521
19.2741   523
19.2841   494
19.2941   554
19.3041   512
19.3141   519
19.3241   507
19.3341   505
19.3441   510
19.3541   504
19.3641   491
19.3741   499
19.3841   540
19.3941   536
19.4041   534
19.4141   537
19.4241   498
19.4341   531
19.4441   507
19.4541   542
19.4641   513
19.4741   507
19.4841   542
19.4941   520
19.5041   503
19.5141   574
19.5241   550
19.5341   533
19.5441   497
19.5541   524
19.5641   538
19.5741   500
19.5841   513
19.5941   523
19.6041   520
19.6141   534
19.6241   546
19.6341   527
19.6441   545
19.6541   495
19.6641   556
19.6741   551
19.6841   519
19.6941   538
19.7041   532
19.7141   530
19.7241   511
19.7341   547
19.7441   545
19.7541   529
19.7641   541
19.7741   553
19.7841   540
19.7941   529
19.8041   511
19.8141   522
19.8241   538
19.8341   519
19.8441   530
19.8541   534
19.8641   512
19.8741   506
19.8841   528
19.8941   534
19.9041   539
19.9141   535
19.9241   517
19.9341   516
19.9441   532
19.9541   521
19.9641   539
19.9741   546
19.9841   504
19.9941   507
20.0041   547
20.0141   564
20.0241   509
20.0341   508
20.0441   531
20.0541   523
20.0641   547
20.0741   557
20.0841   525
20.0941   529
20.1041   511
20.1141   539
20.1241   503
20.1341   501
20.1441   509
20.1541   508
20.1641   542
20.1741   555
20.1841   557
20.1941   549
20.2041   521
20.2141   545
20.2241   554
20.2341   523
20.2441   543
20.2541   519
20.2641   550
20.2741   577
20.2841   562
20.2941   545
20.3041   515
20.3141   504
20.3241   549
20.3341   533
20.3441   503
20.3541   542
20.3641   540
20.3741   536
20.3841   516
20.3941   530
20.4041   538
20.4141   518
20.4241   527
20.4341   549
20.4441   549
20.4541   540
20.4641   535
20.4741   522
20.4841   539
20.4941   550
20.5041   547
20.5141   532
20.5241   561
20.5341   540
20.5441   536
20.5541   532
20.5641   509
20.5741   542
20.5841   528
20.5941   566
20.6041   520
20.6141   507
20.6241   539
20.6341   538
20.6441   525
20.6541   516
20.6641   571
20.6741   493
20.6841   533
20.6941   545
20.7041   546
20.7141   542
20.7241   520
20.7341   509
20.7441   535
20.7541   564
20.7641   547
20.7741   564
20.7841   533
20.7941   570
20.8041   565
20.8141   553
20.8241   538
20.8341   543
20.8441   591
20.8541   607
20.8641   538
20.8741   596
20.8841   603
20.8941   612
20.9041   583
20.9141   609
20.9241   640
20.9341   639
20.9441   621
20.9541   663
20.9641   662
20.9741   673
20.9841   750
20.9941   685
21.0041   718
21.0141   680
21.0241   727
21.0341   726
21.0441   714
21.0541   761
21.0641   744
21.0741   736
21.0841   767
21.0941   767
21.1041   789
21.1141   775
21.1241   756
21.1341   780
21.1441   760
21.1541   760
21.1641   722
21.1741   750
21.1841   783
21.1941   774
21.2041   709
21.2141   700
21.2241   719
21.2341   743
21.2441   721
21.2541   697
21.2641   700
21.2741   639
21.2841   662
21.2941   615
21.3041   639
21.3141   636
21.3241   628
21.3341   584
21.3441   570
21.3541   579
21.3641   562
21.3741   534
21.3841   595
21.3941   551
21.4041   527
21.4141   597
21.4241   540
21.4341   553
21.4441   545
21.4541   558
21.4641   527
21.4741   527
21.4841   509
21.4941   541
21.5041   536
21.5141   519
21.5241   523
21.5341   553
21.5441   541
21.5541   519
21.5641   516
21.5741   523
21.5841   533
21.5941   566
21.6041   500
21.6141   513
21.6241   512
21.6341   565
21.6441   514
21.6541   518
21.6641   521
21.6741   536
21.6841   512
21.6941   495
21.7041   509
21.7141   534
21.7241   539
21.7341   561
21.7441   546
21.7541   523
21.7641   557
21.7741   516
21.7841   545
21.7941   541
21.8041   534
21.8141   494
21.8241   544
21.8341   534
21.8441   572
21.8541   582
21.8641   525
21.8741   555
21.8841   527
21.8941   545
21.9041   530
21.9141   528
21.9241   539
21.9341   545
21.9441   521
21.9541   540
21.9641   515
21.9741   531
21.9841   576
21.9941   535
22.0041   507
22.0141   485
22.0241   525
22.0341   566
22.0441   546
22.0541   540
22.0641   529
22.0741   530
22.0841   492
22.0941   562
22.1041   573
22.1141   524
22.1241   497
22.1341   542
22.1441   525
22.1541   539
22.1641   537
22.1741   511
22.1841   518
22.1941   505
22.2041   518
22.2141   508
22.2241   531
22.2341   548
22.2441   527
22.2541   481
22.2641   561
22.2741   521
22.2841   590
22.2941   512
22.3041   491
22.3141   541
22.3241   547
22.3341   507
22.3441   512
22.3541   556
22.3641   518
22.3741   498
22.3841   502
22.3941   493
22.4041   515
22.4141   539
22.4241   477
22.4341   519
22.4441   521
22.4541   534
22.4641   535
22.4741   542
22.4841   515
22.4941   521
22.5041   569
22.5141   538
22.5241   476
22.5341   514
22.5441   534
22.5541   534
22.5641   524
22.5741   523
22.5841   532
22.5941   498
22.6041   512
22.6141   532
22.6241   521
22.6341   476
22.6441   510
22.6541   531
22.6641   557
22.6741   552
22.6841   552
22.6941   518
22.7041   543
22.7141   522
22.7241   494
22.7341   506
22.7441   536
22.7541   523
22.7641   518
22.7741   534
22.7841   502
22.7941   561
22.8041   548
22.8141   545
22.8241   516
22.8341   475
22.8441   517
22.8541   535
22.8641   525
22.8741   490
22.8841   524
22.8941   497
22.9041   492
22.9141   500
22.9241   483
22.9341   487
22.9441   540
22.9541   495
22.9641   497
22.9741   510
22.9841   485
22.9941   520
23.0041   504
23.0141   512
23.0241   522
23.0341   528
23.0441   513
23.0541   517
23.0641   508
23.0741   484
23.0841   512
23.0941   539
23.1041   550
23.1141   510
23.1241   514
23.1341   518
23.1441   541
23.1541   490
23.1641   501
23.1741   534
23.1841   512
23.1941   486
23.2041   490
23.2141   488
23.2241   509
23.2341   514
23.2441   555
23.2541   486
23.2641   487
23.2741   514
23.2841   493
23.2941   507
23.3041   487
23.3141   483
23.3241   490
23.3341   496
23.3441   492
23.3541   493
23.3641   500
23.3741   464
23.3841   492
23.3941   530
23.4041   504
23.4141   488
23.4241   524
23.4341   488
23.4441   488
23.4541   506
23.4641   488
23.4741   511
23.4841   490
23.4941   538
23.5041   472
23.5141   498
23.5241   484
23.5341   486
23.5441   494
23.5541   478
23.5641   478
23.5741   516
23.5841   482
23.5941   505
23.6041   528
23.6141   527
23.6241   503
23.6341   506
23.6441   507
23.6541   515
23.6641   490
23.6741   500
23.6841   534
23.6941   510
23.7041   543
23.7141   537
23.7241   516
23.7341   535
23.7441   544
23.7541   533
23.7641   546
23.7741   521
23.7841   525
23.7941   534
23.8041   492
23.8141   525
23.8241   528
23.8341   487
23.8441   570
23.8541   482
23.8641   514
23.8741   510
23.8841   524
23.8941   497
23.9041   520
23.9141   531
23.9241   546
23.9341   509
23.9441   519
23.9541   495
23.9641   506
23.9741   484
23.9841   471
23.9941   524
24.0041   485
24.0141   529
24.0241   511
24.0341   500
24.0441   475
24.0541   461
24.0641   494
24.0741   503
24.0841   469
24.0941   482
24.1041   474
24.1141   474
24.1241   457
24.1341   506
24.1441   487
24.1541   457
24.1641   445
24.1741   501
24.1841   457
24.1941   475
24.2041   447
24.2141   441
24.2241   492
24.2341   472
24.2441   499
24.2541   491
24.2641   466
24.2741   481
24.2841   514
24.2941   464
24.3041   498
24.3141   488
24.3241   456
24.3341   499
24.3441   483
24.3541   493
24.3641   451
24.3741   441
24.3841   462
24.3941   435
24.4041   459
24.4141   504
24.4241   498
24.4341   441
24.4441   486
24.4541   459
24.4641   465
24.4741   490
24.4841   478
24.4941   456
24.5041   424
24.5141   481
24.5241   439
24.5341   448
24.5441   500
24.5541   461
24.5641   493
24.5741   440
24.5841   474
24.5941   466
24.6041   453
24.6141   474
24.6241   465
24.6341   416
24.6441   472
24.6541   434
24.6641   468
24.6741   466
24.6841   465
24.6941   492
24.7041   470
24.7141   421
24.7241   430
24.7341   455
24.7441   467
24.7541   450
24.7641   426
24.7741   444
24.7841   413
24.7941   476
24.8041   454
24.8141   433
24.8241   472
24.8341   421
24.8441   436
24.8541   410
24.8641   472
24.8741   436
24.8841   447
24.8941   418
24.9041   506
24.9141   468
24.9241   436
24.9341   421
24.9441   458
24.9541   458
24.9641   461
24.9741   469
24.9841   466
24.9941   446
25.0041   444
25.0141   435
25.0241   467
25.0341   454
25.0441   479
25.0541   430
25.0641   425
25.0741   451
25.0841   467
25.0941   465
25.1041   442
25.1141   459
25.1241   448
25.1341   477
25.1441   436
25.1541   453
25.1641   440
25.1741   462
25.1841   462
25.1941   498
25.2041   444
25.2141   464
25.2241   481
25.2341   429
25.2441   416
25.2541   463
25.2641   481
25.2741   409
25.2841   426
25.2941   477
25.3041   460
25.3141   433
25.3241   438
25.3341   415
25.3441   425
25.3541   434
25.3641   449
25.3741   425
25.3841   432
25.3941   458
25.4041   482
25.4141   432
25.4241   429
25.4341   403
25.4441   422
25.4541   405
25.4641   428
25.4741   419
25.4841   411
25.4941   398
25.5041   420
25.5141   417
25.5241   449
25.5341   430
25.5441   434
25.5541   414
25.5641   434
25.5741   440
25.5841   425
25.5941   403
25.6041   422
25.6141   415
25.6241   380
25.6341   437
25.6441   426
25.6541   424
25.6641   421
25.6741   387
25.6841   416
25.6941   421
25.7041   412
25.7141   402
25.7241   392
25.7341   421
25.7441   394
25.7541   398
25.7641   396
25.7741   420
25.7841   436
25.7941   421
25.8041   369
25.8141   386
25.8241   409
25.8341   427
25.8441   427
25.8541   433
25.8641   411
25.8741   433
25.8841   396
25.8941   407
25.9041   428
25.9141   415
25.9241   408
25.9341   433
25.9441   429
25.9541   409
25.9641   399
25.9741   397
25.9841   398
25.9941   396
26.0041   369
26.0141   438
26.0241   413
26.0341   405
26.0441   392
26.0541   435
26.0641   443
26.0741   434
26.0841   386
26.0941   392
26.1041   399
26.1141   372
26.1241   427
26.1341   419
26.1441   420
26.1541   419
26.1641   377
26.1741   407
26.1841   407
26.1941   408
26.2041   394
26.2141   392
26.2241   386
26.2341   408
26.2441   390
26.2541   397
26.2641   404
26.2741   413
26.2841   399
26.2941   432
26.3041   404
26.3141   395
26.3241   360
26.3341   400
26.3441   381
26.3541   370
26.3641   392
26.3741   412
26.3841   370
26.3941   408
26.4041   399
26.4141   398
26.4241   395
26.4341   389
26.4441   369
26.4541   375
26.4641   389
26.4741   399
26.4841   389
26.4941   403
26.5041   379
26.5141   360
26.5241   371
26.5341   403
26.5441   403
26.5541   377
26.5641   379
26.5741   378
26.5841   392
26.5941   408
26.6041   383
26.6141   399
26.6241   393
26.6341   370
26.6441   339
26.6541   357
26.6641   363
26.6741   378
26.6841   365
26.6941   397
26.7041   367
26.7141   358
26.7241   391
26.7341   383
26.7441   408
26.7541   409
26.7641   403
26.7741   355
26.7841   391
26.7941   341
26.8041   377
26.8141   371
26.8241   403
26.8341   371
26.8441   375
26.8541   372
26.8641   384
26.8741   383
26.8841   366
26.8941   378
26.9041   395
26.9141   372
26.9241   349
26.9341   351
26.9441   370
26.9541   351
26.9641   375
26.9741   345
26.9841   343
26.9941   336
27.0041   368
27.0141   393
27.0241   407
27.0341   355
27.0441   365
27.0541   377
27.0641   371
27.0741   365
27.0841   353
27.0941   379
27.1041   390
27.1141   374
27.1241   322
27.1341   364
27.1441   343
27.1541   362
27.1641   370
27.1741   379
27.1841   365
27.1941   369
27.2041   377
27.2141   376
27.2241   350
27.2341   345
27.2441   345
27.2541   347
27.2641   341
27.2741   373
27.2841   350
27.2941   347
27.3041   321
27.3141   355
27.3241   358
27.3341   346
27.3441   394
27.3541   356
27.3641   345
27.3741   349
27.3841   328
27.3941   341
27.4041   363
27.4141   367
27.4241   335
27.4341   344
27.4441   349
27.4541   372
27.4641   375
27.4741   338
27.4841   337
27.4941   339
27.5041   326
27.5141   335
27.5241   327
27.5341   362
27.5441   342
27.5541   344
27.5641   340
27.5741   350
27.5841   347
27.5941   324
27.6041   356
27.6141   365
27.6241   343
27.6341   313
27.6441   346
27.6541   360
27.6641   335
27.6741   316
27.6841   318
27.6941   354
27.7041   331
27.7141   328
27.7241   330
27.7341   334
27.7441   318
27.7541   339
27.7641   341
27.7741   349
27.7841   332
27.7941   309
27.8041   332
27.8141   333
27.8241   320
27.8341   339
27.8441   328
27.8541   322
27.8641   329
27.8741   310
27.8841   297
27.8941   317
27.9041   322
27.9141   326
27.9241   299
27.9341   332
27.9441   323
27.9541   324
27.9641   334
27.9741   309
27.9841   285
27.9941   337
28.0041   303
28.0141   326
28.0241   314
28.0341   306
28.0441   326
28.0541   335
28.0641   326
28.0741   321
28.0841   305
28.0941   334
28.1041   292
28.1141   322
28.1241   269
28.1341   331
28.1441   301
28.1541   324
28.1641   311
28.1741   326
28.1841   333
28.1941   317
28.2041   320
28.2141   290
28.2241   300
28.2341   304
28.2441   313
28.2541   313
28.2641   315
28.2741   324
28.2841   321
28.2941   345
28.3041   345
28.3141   319
28.3241   300
28.3341   292
28.3441   290
28.3541   283
28.3641   333
28.3741   297
28.3841   319
28.3941   305
28.4041   307
28.4141   305
28.4241   277
28.4341   322
28.4441   300
28.4541   328
28.4641   329
28.4741   299
28.4841   310
28.4941   284
28.5041   265
28.5141   314
28.5241   296
28.5341   311
28.5441   296
28.5541   314
28.5641   316
28.5741   295
28.5841   304
28.5941   312
28.6041   323
28.6141   298
28.6241   285
28.6341   301
28.6441   306
28.6541   292
28.6641   295
28.6741   302
28.6841   288
28.6941   293
28.7041   325
28.7141   320
28.7241   321
28.7341   311
28.7441   285
28.7541   298
28.7641   300
28.7741   287
28.7841   268
28.7941   271
28.8041   292
28.8141   280
28.8241   281
28.8341   272
28.8441   290
28.8541   287
28.8641   291
28.8741   272
28.8841   271
28.8941   307
28.9041   298
28.9141   296
28.9241   276
28.9341   253
28.9441   298
28.9541   292
28.9641   307
28.9741   306
28.9841   264
28.9941   260
29.0041   276
29.0141   285
29.0241   287
29.0341   294
29.0441   274
29.0541   276
29.0641   270
29.0741   268
29.0841   291
29.0941   292
29.1041   283
29.1141   273
29.1241   281
29.1341   274
29.1441   241
29.1541   280
29.1641   262
29.1741   294
29.1841   287
29.1941   286
29.2041   267
29.2141   277
29.2241   276
29.2341   270
29.2441   254
29.2541   292
29.2641   269
29.2741   268
29.2841   284
29.2941   268
29.3041   249
29.3141   285
29.3241   278
29.3341   256
29.3441   270
29.3541   253
29.3641   263
29.3741   270
29.3841   265
29.3941   233
29.4041   279
29.4141   252
29.4241   275
29.4341   258
29.4441   274
29.4541   258
29.4641   245
29.4741   231
29.4841   268
29.4941   276
29.5041   254
29.5141   271
29.5241   278
29.5341   259
29.5441   296
29.5541   244
29.5641   247
29.5741   276
29.5841   249
29.5941   236
29.6041   268
29.6141   241
29.6241   233
29.6341   246
29.6441   256
29.6541   259
29.6641   272
29.6741   265
29.6841   274
29.6941   253
29.7041   240
29.7141   248
29.7241   262
29.7341   266
29.7441   262
29.7541   245
29.7641   242
29.7741   251
29.7841   249
29.7941   275
29.8041   228
29.8141   260
29.8241   260
29.8341   231
29.8441   277
29.8541   240
29.8641   255
29.8741   268
29.8841   232
29.8941   261
29.9041   240
29.9141   225
29.9241   269
29.9341   234
29.9441   244
29.9541   259
29.9641   252
29.9741   254
29.9841   254
29.9941   255
30.0041   241
30.0141   239
30.0241   262
30.0341   224
30.0441   225
30.0541   250
30.0641   238
30.0741   229
30.0841   225
30.0941   227
30.1041   221
30.1141   255
30.1241   258
30.1341   231
30.1441   239
30.1541   264
30.1641   244
30.1741   226
30.1841   234
30.1941   228
30.2041   241
30.2141   234
30.2241   236
30.2341   248
30.2441   234
30.2541   236
30.2641   260
30.2741   218
30.2841   229
30.2941   247
30.3041   246
30.3141   231
30.3241   233
30.3341   261
30.3441   232
30.3541   206
30.3641   240
30.3741   220
30.3841   224
30.3941   228
30.4041   227
30.4141   203
30.4241   238
30.4341   205
30.4441   228
30.4541   231
30.4641   216
30.4741   221
30.4841   223
30.4941   223
30.5041   235
30.5141   224
30.5241   229
30.5341   233
30.5441   227
30.5541   231
30.5641   232
30.5741   208
30.5841   236
30.5941   217
30.6041   224
30.6141   250
30.6241   214
30.6341   199
30.6441   227
30.6541   238
30.6641   207
30.6741   221
30.6841   204
30.6941   263
30.7041   215
30.7141   218
30.7241   222
30.7341   205
30.7441   244
30.7541   234
30.7641   246
30.7741   218
30.7841   201
30.7941   218
30.8041   234
30.8141   221
30.8241   217
30.8341   215
30.8441   236
30.8541   223
30.8641   210
30.8741   215
30.8841   209
30.8941   202
30.9041   243
30.9141   214
30.9241   249
30.9341   199
30.9441   215
30.9541   221
30.9641   226
30.9741   211
30.9841   200
30.9941   173
31.0041   191
31.0141   224
31.0241   208
31.0341   188
31.0441   219
31.0541   209
31.0641   230
31.0741   196
31.0841   208
31.0941   202
31.1041   202
31.1141   235
31.1241   226
31.1341   206
31.1441   208
31.1541   213
31.1641   190
31.1741   203
31.1841   196
31.1941   210
31.2041   216
31.2141   201
31.2241   201
31.2341   219
31.2441   205
31.2541   200
31.2641   202
31.2741   189
31.2841   206
31.2941   199
31.3041   192
31.3141   182
31.3241   188
31.3341   209
31.3441   228
31.3541   187
31.3641   191
31.3741   219
31.3841   178
31.3941   207
31.4041   203
31.4141   208
31.4241   219
31.4341   189
31.4441   212
31.4541   185
31.4641   186
31.4741   175
31.4841   196
31.4941   183
31.5041   177
31.5141   194
31.5241   198
31.5341   182
31.5441   174
31.5541   170
31.5641   164
31.5741   210
31.5841   193
31.5941   170
31.6041   194
31.6141   179
31.6241   198
31.6341   202
31.6441   182
31.6541   184
31.6641   195
31.6741   181
31.6841   175
31.6941   190
31.7041   192
31.7141   188
31.7241   186
31.7341   203
31.7441   191
31.7541   197
31.7641   189
31.7741   164
31.7841   162
31.7941   173
31.8041   178
31.8141   187
31.8241   189
31.8341   184
31.8441   192
31.8541   181
31.8641   216
31.8741   196
31.8841   178
31.8941   182
31.9041   186
31.9141   178
31.9241   179
31.9341   189
31.9441   187
31.9541   174
31.9641   185
31.9741   171
31.9841   166
31.9941   185
32.0041   185
32.0141   182
32.0241   179
32.0341   162
32.0441   196
32.0541   197
32.0641   180
32.0741   194
32.0841   174
32.0941   181
32.1041   170
32.1141   199
32.1241   177
32.1341   196
32.1441   172
32.1541   193
32.1641   194
32.1741   188
32.1841   159
32.1941   178
32.2041   163
32.2141   174
32.2241   157
32.2341   164
32.2441   201
32.2541   170
32.2641   165
32.2741   169
32.2841   164
32.2941   158
32.3041   178
32.3141   197
32.3241   168
32.3341   156
32.3441   188
32.3541   195
32.3641   155
32.3741   187
32.3841   166
32.3941   173
32.4041   157
32.4141   168
32.4241   200
32.4341   164
32.4441   173
32.4541   163
32.4641   172
32.4741   155
32.4841   137
32.4941   148
32.5041   145
32.5141   155
32.5241   148
32.5341   150
32.5441   171
32.5541   180
32.5641   163
32.5741   152
32.5841   188
32.5941   147
32.6041   143
32.6141   168
32.6241   161
32.6341   175
32.6441   171
32.6541   156
32.6641   149
32.6741   155
32.6841   149
32.6941   163
32.7041   159
32.7141   139
32.7241   158
32.7341   148
32.7441   146
32.7541   166
32.7641   150
32.7741   155
32.7841   165
32.7941   157
32.8041   155
32.8141   153
32.8241   161
32.8341   158
32.8441   164
32.8541   167
32.8641   167
32.8741   128
32.8841   150
32.8941   170
32.9041   130
32.9141   142
32.9241   154
32.9341   125
32.9441   153
32.9541   134
32.9641   141
32.9741   149
32.9841   147
32.9941   163
33.0041   133
33.0141   143
33.0241   165
33.0341   145
33.0441   137
33.0541   148
33.0641   150
33.0741   162
33.0841   152
33.0941   142
33.1041   142
33.1141   135
33.1241   146
33.1341   151
33.1441   148
33.1541   144
33.1641   154
33.1741   136
33.1841   135
33.1941   154
33.2041   144
33.2141   127
33.2241   135
33.2341   156
33.2441   140
33.2541   163
33.2641   134
33.2741   137
33.2841   139
33.2941   131
33.3041   153
33.3141   139
33.3241   148
33.3341   118
33.3441   142
33.3541   139
33.3641   136
33.3741   134
33.3841   159
33.3941   145
33.4041   141
33.4141   153
33.4241   135
33.4341   126
33.4441   140
33.4541   125
33.4641   126
33.4741   122
33.4841   140
33.4941   161
33.5041   152
33.5141   154
33.5241   151
33.5341   147
33.5441   145
33.5541   128
33.5641   122
33.5741   128
33.5841   135
33.5941   157
33.6041   127
33.6141   145
33.6241   140
33.6341   130
33.6441   119
33.6541   149
33.6641   115
33.6741   133
33.6841   126
33.6941   142
33.7041   141
33.7141   141
33.7241   134
33.7341   121
33.7441   124
33.7541   121
33.7641   111
33.7741   114
33.7841   127
33.7941   149
33.8041   139
33.8141   133
33.8241   138
33.8341   135
33.8441   119
33.8541   122
33.8641   133
33.8741   131
33.8841   128
33.8941   117
33.9041   124
33.9141   133
33.9241   122
33.9341   116
33.9441   127
33.9541   126
33.9641   115
33.9741   151
33.9841   130
33.9941   117
34.0041   118
34.0141   120
34.0241   119
34.0341   128
34.0441   106
34.0541   124
34.0641   111
34.0741   124
34.0841   118
34.0941   130
34.1041    95
34.1141   119
34.1241   141
34.1341   130
34.1441   149
34.1541   130
34.1641   128
34.1741   114
34.1841   129
34.1941   126
34.2041    97
34.2141   136
34.2241   130
34.2341   109
34.2441   110
34.2541   123
34.2641   143
34.2741   121
34.2841   132
34.2941   132
34.3041   121
34.3141   115
34.3241   127
34.3341   151
34.3441   124
34.3541   106
34.3641   112
34.3741   137
34.3841   107
34.3941   126
34.4041   129
34.4141   109
34.4241   120
34.4341   122
34.4441   122
34.4541   107
34.4641   123
34.4741   107
34.4841   114
34.4941   116
34.5041   114
34.5141   115
34.5241   113
34.5341   107
34.5441   115
34.5541    91
34.5641   111
34.5741   110
34.5841   123
34.5941   106
34.6041    97
34.6141   113
34.6241   126
34.6341   108
34.6441   109
34.6541   103
34.6641   115
34.6741   113
34.6841   104
34.6941   112
34.7041   118
34.7141   116
34.7241    94
34.7341    90
34.7441   104
34.7541   103
34.7641   110
34.7741   105
34.7841   104
34.7941    90
34.8041   115
34.8141   101
34.8241   101
34.8341    95
34.8441    98
34.8541    91
34.8641    99
34.8741    95
34.8841    99
34.8941    80
34.9041    84
34.9141    91
34.9241   104
34.9341   105
34.9441   100
34.9541   103
34.9641   103
34.9741   100
34.9841   101
34.9941   105
35.0041    95
35.0141   109
35.0241   121
35.0341   104
35.0441   105
35.0541    92
35.0641   105
35.0741   113
35.0841    93
35.0941   118
35.1041   113
35.1141   108
35.1241   107
35.1341    84
35.1441    87
35.1541    95
35.1641    86
35.1741    89
35.1841    91
35.1941    97
35.2041    96
35.2141   121
35.2241    95
35.2341    95
35.2441    93
35.2541    90
35.2641   110
35.2741    95
35.2841    97
35.2941    78
35.3041    94
35.3141   101
35.3241    97
35.3341    85
35.3441    95
35.3541    98
35.3641   102
35.3741    98
35.3841    95
35.3941   126
35.4041   100
35.4141    99
35.4241    84
35.4341    79
35.4441   103
35.4541    87
35.4641    86
35.4741    97
35.4841    87
35.4941    89
35.5041    96
35.5141    90
35.5241    88
35.5341    94
35.5441    96
35.5541    97
35.5641   100
35.5741    93
35.5841    93
35.5941    88
35.6041    92
35.6141    87
35.6241    98
35.6341    81
35.6441   102
35.6541    86
35.6641    85
35.6741    80
35.6841    93
35.6941    93
35.7041   105
35.7141    96
35.7241    92
35.7341    79
35.7441    87
35.7541    75
35.7641    85
35.7741    99
35.7841    86
35.7941    71
35.8041    85
35.8141    70
35.8241    74
35.8341    78
35.8441    95
35.8541    92
35.8641    76
35.8741    86
35.8841    86
35.8941    71
35.9041    83
35.9141   100
35.9241    75
35.9341    83
35.9441    80
35.9541    69
35.9641    87
35.9741    81
35.9841    79
35.9941    76
36.0041    73
36.0141    78
36.0241    92
36.0341    82
36.0441    92
36.0541    75
36.0641    72
36.0741    82
36.0841    85
36.0941    62
36.1041    79
36.1141    87
36.1241    89
36.1341    77
36.1441    76
36.1541    85
36.1641    86
36.1741    73
36.1841    74
36.1941    71
36.2041    70
36.2141    68
36.2241    79
36.2341    83
36.2441    82
36.2541    76
36.2641    82
36.2741   101
36.2841    78
36.2941    83
36.3041    91
36.3141    77
36.3241    73
36.3341    75
36.3441    74
36.3541    83
36.3641    83
36.3741    78
36.3841    70
36.3941    64
36.4041    84
36.4141    67
36.4241    65
36.4341    73
36.4441    78
36.4541    75
36.4641    67
36.4741    71
36.4841    73
36.4941    74
36.5041    73
36.5141    71
36.5241    79
36.5341    85
36.5441    69
36.5541    67
36.5641    77
36.5741    78
36.5841    68
36.5941    68
36.6041    73
36.6141    61
36.6241    69
36.6341    65
36.6441    63
36.6541    76
36.6641    74
36.6741    64
36.6841    60
36.6941    65
36.7041    73
36.7141    71
36.7241    64
36.7341    78
36.7441    67
36.7541    64
36.7641    71
36.7741    73
36.7841    64
36.7941    62
36.8041    76
36.8141    65
36.8241    70
36.8341    78
36.8441    58
36.8541    67
36.8641    52
36.8741    58
36.8841    61
36.8941    71
36.9041    62
36.9141    60
36.9241    57
36.9341    60
36.9441    71
36.9541    68
36.9641    61
36.9741    89
36.9841    70
36.9941    63
37.0041    57
37.0141    71
37.0241    59
37.0341    56
37.0441    67
37.0541    59
37.0641    56
37.0741    57
37.0841    72
37.0941    59
37.1041    71
37.1141    65
37.1241    52
37.1341    53
37.1441    49
37.1541    67
37.1641    52
37.1741    56
37.1841    54
37.1941    78
37.2041    65
37.2141    55
37.2241    50
37.2341    61
37.2441    54
37.2541    57
37.2641    70
37.2741    68
37.2841    53
37.2941    73
37.3041    43
37.3141    68
37.3241    61
37.3341    68
37.3441    56
37.3541    57
37.3641    59
37.3741    53
37.3841    65
37.3941    47
37.4041    47
37.4141    64
37.4241    59
37.4341    78
37.4441    65
37.4541    63
37.4641    45
37.4741    58
37.4841    57
37.4941    58
37.5041    64
37.5141    77
37.5241    50
37.5341    52
37.5441    45
37.5541    47
37.5641    54
37.5741    55
37.5841    53
37.5941    53
37.6041    52
37.6141    58
37.6241    69
37.6341    47
37.6441    51
37.6541    62
37.6641    60
37.6741    63
37.6841    50
37.6941    52
37.7041    56
37.7141    64
37.7241    50
37.7341    60
37.7441    59
37.7541    46
37.7641    56
37.7741    55
37.7841    52
37.7941    44
37.8041    43
37.8141    48
37.8241    50
37.8341    44
37.8441    61
37.8541    55
37.8641    42
37.8741    61
37.8841    51
37.8941    59
37.9041    40
37.9141    51
37.9241    54
37.9341    44
37.9441    49
37.9541    57
37.9641    53
37.9741    53
37.9841    57
37.9941    55
38.0041    35
38.0141    56
38.0241    50
38.0341    55
38.0441    45
38.0541    51
38.0641    44
38.0741    61
38.0841    44
38.0941    42
38.1041    45
38.1141    49
38.1241    59
38.1341    43
38.1441    42
38.1541    39
38.1641    44
38.1741    46
38.1841    58
38.1941    40
38.2041    44
38.2141    47
38.2241    45
38.2341    42
38.2441    46
38.2541    45
38.2641    55
38.2741    43
38.2841    46
38.2941    49
38.3041    64
38.3141    53
38.3241    37
38.3341    34
38.3441    42
38.3541    64
38.3641    46
38.3741    39
38.3841    48
38.3941    51
38.4041    47
38.4141    40
38.4241    47
38.4341    41
38.4441    45
38.4541    43
38.4641    49
38.4741    46
38.4841    48
38.4941    38
38.5041    51
38.5141    43
38.5241    40
38.5341    46
38.5441    42
38.5541    35
38.5641    32
38.5741    39
38.5841    49
38.5941    41
38.6041    52
38.6141    37
38.6241    46
38.6341    42
38.6441    37
38.6541    39
38.6641    41
38.6741    45
38.6841    43
38.6941    35
38.7041    39
38.7141    39
38.7241    33
38.7341    51
38.7441    41
38.7541    35
38.7641    37
38.7741    34
38.7841    45
38.7941    44
38.8041    46
38.8141    40
38.8241    36
38.8341    31
38.8441    39
38.8541    46
38.8641    30
38.8741    51
38.8841    42
38.8941    35
38.9041    29
38.9141    42
38.9241    32
38.9341    33
38.9441    37
38.9541    25
38.9641    36
38.9741    37
38.9841    44
38.9941    40
39.0041    54
39.0141    38
39.0241    39
39.0341    36
39.0441    31
39.0541    36
39.0641    29
39.0741    41
39.0841    40
39.0941    33
39.1041    43
39.1141    33
39.1241    32
39.1341    31
39.1441    40
39.1541    36
39.1641    23
39.1741    36
39.1841    36
39.1941    27
39.2041    36
39.2141    40
39.2241    31
39.2341    33
39.2441    30
39.2541    32
39.2641    31
39.2741    42
39.2841    31
39.2941    31
39.3041    37
39.3141    28
39.3241    33
39.3341    35
39.3441    33
39.3541    35
39.3641    39
39.3741    31
39.3841    24
39.3941    29
39.4041    32
39.4141    48
39.4241    32
39.4341    41
39.4441    32
39.4541    38
39.4641    33
39.4741    24
39.4841    30
39.4941    22
39.5041    29
39.5141    24
39.5241    26
39.5341    32
39.5441    27
39.5541    25
39.5641    36
39.5741    34
39.5841    45
39.5941    30
39.6041    16
39.6141    39
39.6241    43
39.6341    34
39.6441    38
39.6541    29
39.6641    26
39.6741    32
39.6841    27
39.6941    35
39.7041    27
39.7141    17
39.7241    17
39.7341    23
39.7441    20
39.7541    34
39.7641    31
39.7741    34
39.7841    28
39.7941    28
39.8041    35
39.8141    27
39.8241    34
39.8341    30
39.8441    17
39.8541    22
39.8641    20
39.8741    30
39.8841    25
39.8941    30
39.9041    23
39.9141    21
39.9241    18
39.9341    23
39.9441    29
39.9541    35
39.9641    27
39.9741    25
39.9841    24
