Bruker Nano GmbH Berlin, Germany
Esprit 1.9

Date: 4/21/2021 2:37:42 PM
Real time: 20197
Life time: 18871
Pulse density: 97477


Detector type: XFlash 430
Window type: Custom type
Detector thickness: 0.45
Si dead layer:0.029

Calibration, lin.: 10
Calibration, abs.: -955.9
Mn FWHM: 137.05
Fano factor: 0.121
Channels: 4095

Energy Counts
-0.9559     0
-0.9459     0
-0.9359     0
-0.9259     0
-0.9159     0
-0.9059     0
-0.8959     0
-0.8859     0
-0.8759     0
-0.8659     0
-0.8559     0
-0.8459     0
-0.8359     0
-0.8259     0
-0.8159     0
-0.8059     0
-0.7959     0
-0.7859     0
-0.7759     0
-0.7659     0
-0.7559     0
-0.7459     0
-0.7359     0
-0.7259     0
-0.7159     0
-0.7059     0
-0.6959     0
-0.6859     0
-0.6759     0
-0.6659     0
-0.6559     0
-0.6459     0
-0.6359     0
-0.6259     0
-0.6159     0
-0.6059     0
-0.5959     0
-0.5859     0
-0.5759     0
-0.5659     0
-0.5559     0
-0.5459     0
-0.5359     0
-0.5259     0
-0.5159     0
-0.5059     0
-0.4959     0
-0.4859     0
-0.4759     0
-0.4659     0
-0.4559     0
-0.4459     0
-0.4359     0
-0.4259     0
-0.4159     0
-0.4059     0
-0.3959     0
-0.3859     0
-0.3759     0
-0.3659     0
-0.3559     0
-0.3459     0
-0.3359     0
-0.3259     0
-0.3159     0
-0.3059     0
-0.2959     0
-0.2859     0
-0.2759     0
-0.2659     0
-0.2559     0
-0.2459     0
-0.2359     0
-0.2259     0
-0.2159     0
-0.2059     0
-0.1959     0
-0.1859     0
-0.1759     0
-0.1659     0
-0.1559     0
-0.1459     0
-0.1359     0
-0.1259     0
-0.1159     2
-0.1059     6
-0.0959    54
-0.0859   193
-0.0759   717
-0.0659  2104
-0.0559  5404
-0.0459 11916
-0.0359 22238
-0.0259 35877
-0.0159 48868
-0.0059 57911
 0.0041 58639
 0.0141 49978
 0.0241 37200
 0.0341 23405
 0.0441 12891
 0.0541  5953
 0.0641  2458
 0.0741   831
 0.0841   280
 0.0941    84
 0.1041    22
 0.1141    11
 0.1241     5
 0.1341     9
 0.1441     7
 0.1541     5
 0.1641     4
 0.1741     2
 0.1841   193
 0.1941   322
 0.2041   287
 0.2141   282
 0.2241   282
 0.2341   306
 0.2441   283
 0.2541   265
 0.2641   248
 0.2741   302
 0.2841   288
 0.2941   281
 0.3041   277
 0.3141   261
 0.3241   280
 0.3341   282
 0.3441   280
 0.3541   287
 0.3641   276
 0.3741   273
 0.3841   248
 0.3941   287
 0.4041   269
 0.4141   244
 0.4241   253
 0.4341   266
 0.4441   274
 0.4541   245
 0.4641   249
 0.4741   264
 0.4841   265
 0.4941   255
 0.5041   236
 0.5141   243
 0.5241   248
 0.5341   246
 0.5441   257
 0.5541   238
 0.5641   212
 0.5741   216
 0.5841   213
 0.5941   219
 0.6041   224
 0.6141   228
 0.6241   234
 0.6341   243
 0.6441   235
 0.6541   229
 0.6641   229
 0.6741   228
 0.6841   228
 0.6941   228
 0.7041   226
 0.7141   227
 0.7241   215
 0.7341   213
 0.7441   206
 0.7541   212
 0.7641   227
 0.7741   236
 0.7841   219
 0.7941   205
 0.8041   186
 0.8141   192
 0.8241   207
 0.8341   194
 0.8441   205
 0.8541   193
 0.8641   187
 0.8741   196
 0.8841   191
 0.8941   195
 0.9041   200
 0.9141   208
 0.9241   208
 0.9341   214
 0.9441   197
 0.9541   181
 0.9641   195
 0.9741   188
 0.9841   206
 0.9941   190
 1.0041   204
 1.0141   194
 1.0241   214
 1.0341   186
 1.0441   197
 1.0541   178
 1.0641   179
 1.0741   182
 1.0841   191
 1.0941   190
 1.1041   202
 1.1141   165
 1.1241   182
 1.1341   181
 1.1441   183
 1.1541   184
 1.1641   179
 1.1741   187
 1.1841   174
 1.1941   173
 1.2041   180
 1.2141   193
 1.2241   175
 1.2341   167
 1.2441   168
 1.2541   174
 1.2641   186
 1.2741   183
 1.2841   172
 1.2941   169
 1.3041   175
 1.3141   197
 1.3241   165
 1.3341   150
 1.3441   172
 1.3541   169
 1.3641   164
 1.3741   163
 1.3841   169
 1.3941   179
 1.4041   179
 1.4141   163
 1.4241   162
 1.4341   182
 1.4441   178
 1.4541   184
 1.4641   158
 1.4741   154
 1.4841   177
 1.4941   155
 1.5041   144
 1.5141   179
 1.5241   163
 1.5341   156
 1.5441   177
 1.5541   173
 1.5641   142
 1.5741   149
 1.5841   178
 1.5941   146
 1.6041   153
 1.6141   156
 1.6241   168
 1.6341   152
 1.6441   175
 1.6541   206
 1.6641   250
 1.6741   291
 1.6841   363
 1.6941   452
 1.7041   562
 1.7141   674
 1.7241   715
 1.7341   776
 1.7441   796
 1.7541   773
 1.7641   660
 1.7741   557
 1.7841   454
 1.7941   384
 1.8041   322
 1.8141   289
 1.8241   242
 1.8341   187
 1.8441   207
 1.8541   226
 1.8641   216
 1.8741   219
 1.8841   183
 1.8941   186
 1.9041   181
 1.9141   169
 1.9241   158
 1.9341   174
 1.9441   189
 1.9541   163
 1.9641   172
 1.9741   187
 1.9841   210
 1.9941   230
 2.0041   222
 2.0141   203
 2.0241   201
 2.0341   213
 2.0441   204
 2.0541   206
 2.0641   165
 2.0741   156
 2.0841   174
 2.0941   139
 2.1041   147
 2.1141   142
 2.1241   151
 2.1341   145
 2.1441   159
 2.1541   170
 2.1641   159
 2.1741   140
 2.1841   163
 2.1941   156
 2.2041   152
 2.2141   128
 2.2241   135
 2.2341   143
 2.2441   151
 2.2541   137
 2.2641   150
 2.2741   157
 2.2841   135
 2.2941   164
 2.3041   131
 2.3141   135
 2.3241   142
 2.3341   139
 2.3441   153
 2.3541   151
 2.3641   145
 2.3741   157
 2.3841   143
 2.3941   140
 2.4041   128
 2.4141   155
 2.4241   145
 2.4341   129
 2.4441   130
 2.4541   131
 2.4641   130
 2.4741   141
 2.4841   143
 2.4941   138
 2.5041   112
 2.5141   133
 2.5241   137
 2.5341   129
 2.5441   155
 2.5541   129
 2.5641   150
 2.5741   132
 2.5841   139
 2.5941   148
 2.6041   121
 2.6141   126
 2.6241   125
 2.6341   136
 2.6441   123
 2.6541   116
 2.6641   128
 2.6741   124
 2.6841   128
 2.6941   144
 2.7041   133
 2.7141   125
 2.7241   138
 2.7341   126
 2.7441   121
 2.7541   120
 2.7641   119
 2.7741   125
 2.7841   141
 2.7941   143
 2.8041   153
 2.8141   124
 2.8241   154
 2.8341   144
 2.8441   137
 2.8541   121
 2.8641   150
 2.8741   117
 2.8841   127
 2.8941   132
 2.9041   122
 2.9141    99
 2.9241   113
 2.9341   126
 2.9441   142
 2.9541   127
 2.9641   116
 2.9741   103
 2.9841   113
 2.9941   125
 3.0041    99
 3.0141   119
 3.0241   109
 3.0341    90
 3.0441   100
 3.0541   106
 3.0641   114
 3.0741   132
 3.0841    93
 3.0941    98
 3.1041   108
 3.1141    95
 3.1241    90
 3.1341   118
 3.1441    89
 3.1541   105
 3.1641   113
 3.1741   120
 3.1841   102
 3.1941   117
 3.2041   140
 3.2141   126
 3.2241   140
 3.2341   155
 3.2441   172
 3.2541   193
 3.2641   214
 3.2741   234
 3.2841   243
 3.2941   284
 3.3041   303
 3.3141   310
 3.3241   288
 3.3341   278
 3.3441   280
 3.3541   224
 3.3641   206
 3.3741   188
 3.3841   158
 3.3941   121
 3.4041   118
 3.4141   115
 3.4241   106
 3.4341   100
 3.4441    92
 3.4541   114
 3.4641    91
 3.4741   110
 3.4841   109
 3.4941   109
 3.5041   117
 3.5141   119
 3.5241   136
 3.5341   152
 3.5441   167
 3.5541   189
 3.5641   233
 3.5741   313
 3.5841   379
 3.5941   486
 3.6041   665
 3.6141   867
 3.6241  1046
 3.6341  1380
 3.6441  1673
 3.6541  2017
 3.6641  2226
 3.6741  2404
 3.6841  2498
 3.6941  2547
 3.7041  2425
 3.7141  2338
 3.7241  2089
 3.7341  1726
 3.7441  1364
 3.7541  1098
 3.7641   897
 3.7741   657
 3.7841   465
 3.7941   310
 3.8041   226
 3.8141   183
 3.8241   131
 3.8341   113
 3.8441   114
 3.8541   119
 3.8641   110
 3.8741    95
 3.8841   114
 3.8941   118
 3.9041   149
 3.9141   172
 3.9241   202
 3.9341   237
 3.9441   257
 3.9541   327
 3.9641   362
 3.9741   411
 3.9841   444
 3.9941   506
 4.0041   516
 4.0141   520
 4.0241   471
 4.0341   474
 4.0441   446
 4.0541   413
 4.0641   338
 4.0741   329
 4.0841   241
 4.0941   192
 4.1041   170
 4.1141   140
 4.1241   109
 4.1341   109
 4.1441    95
 4.1541    92
 4.1641    80
 4.1741    90
 4.1841    84
 4.1941    84
 4.2041    80
 4.2141    77
 4.2241    78
 4.2341    82
 4.2441    71
 4.2541    66
 4.2641    79
 4.2741    70
 4.2841    67
 4.2941    84
 4.3041    74
 4.3141    72
 4.3241    74
 4.3341    83
 4.3441    75
 4.3541    84
 4.3641   110
 4.3741    98
 4.3841   108
 4.3941   130
 4.4041   163
 4.4141   186
 4.4241   215
 4.4341   313
 4.4441   346
 4.4541   418
 4.4641   484
 4.4741   532
 4.4841   569
 4.4941   640
 4.5041   608
 4.5141   630
 4.5241   646
 4.5341   586
 4.5441   491
 4.5541   422
 4.5641   359
 4.5741   279
 4.5841   254
 4.5941   221
 4.6041   159
 4.6141   191
 4.6241   137
 4.6341   116
 4.6441   113
 4.6541    92
 4.6641    94
 4.6741    90
 4.6841    70
 4.6941    80
 4.7041    91
 4.7141   105
 4.7241    96
 4.7341    64
 4.7441    94
 4.7541    83
 4.7641    91
 4.7741   103
 4.7841    91
 4.7941   110
 4.8041   113
 4.8141   100
 4.8241   121
 4.8341   122
 4.8441   133
 4.8541   146
 4.8641   170
 4.8741   163
 4.8841   197
 4.8941   194
 4.9041   187
 4.9141   224
 4.9241   193
 4.9341   195
 4.9441   204
 4.9541   174
 4.9641   176
 4.9741   181
 4.9841   159
 4.9941   141
 5.0041   134
 5.0141   120
 5.0241   118
 5.0341    92
 5.0441   105
 5.0541    91
 5.0641    86
 5.0741   102
 5.0841   101
 5.0941   101
 5.1041    93
 5.1141    74
 5.1241    97
 5.1341   104
 5.1441    91
 5.1541    79
 5.1641   106
 5.1741   104
 5.1841    96
 5.1941    90
 5.2041    93
 5.2141   104
 5.2241   105
 5.2341    87
 5.2441    91
 5.2541    96
 5.2641   114
 5.2741   107
 5.2841    94
 5.2941   111
 5.3041   106
 5.3141   100
 5.3241   117
 5.3341    97
 5.3441    98
 5.3541   116
 5.3641   134
 5.3741   111
 5.3841   150
 5.3941   145
 5.4041   135
 5.4141   110
 5.4241   129
 5.4341   126
 5.4441   133
 5.4541   131
 5.4641   120
 5.4741   117
 5.4841   113
 5.4941   123
 5.5041   111
 5.5141   105
 5.5241   117
 5.5341    96
 5.5441   115
 5.5541    94
 5.5641   122
 5.5741    94
 5.5841    87
 5.5941   108
 5.6041   101
 5.6141   103
 5.6241   111
 5.6341   103
 5.6441   101
 5.6541   106
 5.6641   108
 5.6741   110
 5.6841    94
 5.6941    87
 5.7041   108
 5.7141   125
 5.7241   117
 5.7341   121
 5.7441   121
 5.7541   125
 5.7641   131
 5.7741   149
 5.7841   159
 5.7941   193
 5.8041   199
 5.8141   208
 5.8241   245
 5.8341   302
 5.8441   355
 5.8541   373
 5.8641   361
 5.8741   358
 5.8841   430
 5.8941   416
 5.9041   372
 5.9141   405
 5.9241   342
 5.9341   354
 5.9441   345
 5.9541   295
 5.9641   282
 5.9741   246
 5.9841   219
 5.9941   209
 6.0041   176
 6.0141   166
 6.0241   156
 6.0341   159
 6.0441   145
 6.0541   161
 6.0641   131
 6.0741   131
 6.0841   148
 6.0941   159
 6.1041   138
 6.1141   162
 6.1241   173
 6.1341   153
 6.1441   173
 6.1541   187
 6.1641   202
 6.1741   205
 6.1841   246
 6.1941   303
 6.2041   370
 6.2141   426
 6.2241   604
 6.2341   810
 6.2441  1132
 6.2541  1540
 6.2641  2185
 6.2741  3027
 6.2841  4068
 6.2941  5400
 6.3041  6989
 6.3141  8792
 6.3241 11032
 6.3341 13013
 6.3441 15567
 6.3541 17647
 6.3641 19707
 6.3741 21350
 6.3841 22622
 6.3941 22970
 6.4041 22989
 6.4141 22450
 6.4241 21146
 6.4341 19486
 6.4441 17381
 6.4541 15121
 6.4641 12839
 6.4741 10486
 6.4841  8524
 6.4941  6599
 6.5041  5071
 6.5141  3787
 6.5241  2727
 6.5341  1894
 6.5441  1397
 6.5541   971
 6.5641   690
 6.5741   513
 6.5841   378
 6.5941   283
 6.6041   227
 6.6141   202
 6.6241   174
 6.6341   202
 6.6441   198
 6.6541   160
 6.6641   171
 6.6741   154
 6.6841   141
 6.6941   185
 6.7041   172
 6.7141   185
 6.7241   183
 6.7341   153
 6.7441   190
 6.7541   174
 6.7641   190
 6.7741   189
 6.7841   215
 6.7941   205
 6.8041   229
 6.8141   252
 6.8241   226
 6.8341   253
 6.8441   230
 6.8541   272
 6.8641   285
 6.8741   354
 6.8841   352
 6.8941   449
 6.9041   508
 6.9141   621
 6.9241   733
 6.9341   879
 6.9441  1085
 6.9541  1373
 6.9641  1611
 6.9741  2001
 6.9841  2358
 6.9941  2736
 7.0041  3023
 7.0141  3410
 7.0241  3653
 7.0341  3872
 7.0441  4038
 7.0541  4009
 7.0641  4029
 7.0741  3803
 7.0841  3691
 7.0941  3380
 7.1041  3048
 7.1141  2605
 7.1241  2340
 7.1341  1966
 7.1441  1614
 7.1541  1227
 7.1641  1091
 7.1741   840
 7.1841   627
 7.1941   514
 7.2041   433
 7.2141   336
 7.2241   308
 7.2341   291
 7.2441   247
 7.2541   226
 7.2641   220
 7.2741   212
 7.2841   221
 7.2941   235
 7.3041   217
 7.3141   250
 7.3241   254
 7.3341   255
 7.3441   256
 7.3541   295
 7.3641   281
 7.3741   295
 7.3841   278
 7.3941   283
 7.4041   307
 7.4141   318
 7.4241   322
 7.4341   318
 7.4441   308
 7.4541   294
 7.4641   293
 7.4741   261
 7.4841   265
 7.4941   266
 7.5041   258
 7.5141   253
 7.5241   235
 7.5341   235
 7.5441   228
 7.5541   228
 7.5641   209
 7.5741   229
 7.5841   203
 7.5941   202
 7.6041   205
 7.6141   206
 7.6241   231
 7.6341   209
 7.6441   204
 7.6541   201
 7.6641   213
 7.6741   201
 7.6841   210
 7.6941   223
 7.7041   236
 7.7141   252
 7.7241   231
 7.7341   227
 7.7441   229
 7.7541   230
 7.7641   232
 7.7741   242
 7.7841   225
 7.7941   274
 7.8041   262
 7.8141   296
 7.8241   278
 7.8341   309
 7.8441   336
 7.8541   291
 7.8641   295
 7.8741   311
 7.8841   341
 7.8941   332
 7.9041   351
 7.9141   365
 7.9241   383
 7.9341   368
 7.9441   431
 7.9541   432
 7.9641   486
 7.9741   547
 7.9841   533
 7.9941   567
 8.0041   616
 8.0141   660
 8.0241   721
 8.0341   778
 8.0441   861
 8.0541   877
 8.0641   878
 8.0741  1027
 8.0841  1053
 8.0941  1099
 8.1041  1101
 8.1141  1174
 8.1241  1225
 8.1341  1238
 8.1441  1315
 8.1541  1382
 8.1641  1360
 8.1741  1438
 8.1841  1429
 8.1941  1414
 8.2041  1458
 8.2141  1493
 8.2241  1521
 8.2341  1525
 8.2441  1623
 8.2541  1687
 8.2641  1726
 8.2741  1756
 8.2841  1938
 8.2941  2023
 8.3041  2169
 8.3141  2400
 8.3241  2559
 8.3341  2707
 8.3441  2874
 8.3541  3055
 8.3641  3128
 8.3741  3288
 8.3841  3288
 8.3941  3279
 8.4041  3362
 8.4141  3146
 8.4241  3039
 8.4341  2784
 8.4441  2524
 8.4541  2316
 8.4641  1889
 8.4741  1850
 8.4841  1522
 8.4941  1309
 8.5041  1108
 8.5141   944
 8.5241   762
 8.5341   661
 8.5441   593
 8.5541   533
 8.5641   495
 8.5741   455
 8.5841   441
 8.5941   419
 8.6041   447
 8.6141   430
 8.6241   419
 8.6341   401
 8.6441   433
 8.6541   412
 8.6641   395
 8.6741   423
 8.6841   391
 8.6941   357
 8.7041   395
 8.7141   388
 8.7241   347
 8.7341   331
 8.7441   352
 8.7541   357
 8.7641   358
 8.7741   356
 8.7841   350
 8.7941   360
 8.8041   355
 8.8141   329
 8.8241   329
 8.8341   341
 8.8441   299
 8.8541   338
 8.8641   354
 8.8741   308
 8.8841   325
 8.8941   312
 8.9041   334
 8.9141   376
 8.9241   357
 8.9341   365
 8.9441   344
 8.9541   339
 8.9641   361
 8.9741   357
 8.9841   375
 8.9941   379
 9.0041   376
 9.0141   408
 9.0241   416
 9.0341   416
 9.0441   437
 9.0541   433
 9.0641   433
 9.0741   443
 9.0841   469
 9.0941   491
 9.1041   481
 9.1141   535
 9.1241   573
 9.1341   558
 9.1441   602
 9.1541   589
 9.1641   674
 9.1741   665
 9.1841   697
 9.1941   697
 9.2041   745
 9.2141   797
 9.2241   800
 9.2341   884
 9.2441   880
 9.2541   934
 9.2641  1035
 9.2741  1049
 9.2841  1102
 9.2941  1119
 9.3041  1160
 9.3141  1158
 9.3241  1216
 9.3341  1247
 9.3441  1288
 9.3541  1339
 9.3641  1353
 9.3741  1390
 9.3841  1412
 9.3941  1439
 9.4041  1448
 9.4141  1480
 9.4241  1462
 9.4341  1549
 9.4441  1653
 9.4541  1609
 9.4641  1660
 9.4741  1752
 9.4841  1783
 9.4941  1850
 9.5041  1892
 9.5141  1982
 9.5241  2021
 9.5341  2121
 9.5441  2227
 9.5541  2343
 9.5641  2428
 9.5741  2524
 9.5841  2700
 9.5941  2773
 9.6041  2906
 9.6141  2981
 9.6241  3094
 9.6341  3206
 9.6441  3218
 9.6541  3260
 9.6641  3310
 9.6741  3319
 9.6841  3194
 9.6941  3188
 9.7041  3026
 9.7141  2874
 9.7241  2637
 9.7341  2526
 9.7441  2327
 9.7541  2165
 9.7641  1968
 9.7741  1812
 9.7841  1805
 9.7941  1601
 9.8041  1481
 9.8141  1468
 9.8241  1390
 9.8341  1327
 9.8441  1333
 9.8541  1351
 9.8641  1301
 9.8741  1362
 9.8841  1446
 9.8941  1450
 9.9041  1464
 9.9141  1478
 9.9241  1492
 9.9341  1556
 9.9441  1522
 9.9541  1532
 9.9641  1575
 9.9741  1454
 9.9841  1369
 9.9941  1347
10.0041  1290
10.0141  1192
10.0241  1007
10.0341   939
10.0441   885
10.0541   795
10.0641   690
10.0741   621
10.0841   553
10.0941   505
10.1041   481
10.1141   432
10.1241   396
10.1341   341
10.1441   330
10.1541   296
10.1641   280
10.1741   255
10.1841   283
10.1941   278
10.2041   229
10.2141   234
10.2241   242
10.2341   224
10.2441   219
10.2541   209
10.2641   192
10.2741   191
10.2841   203
10.2941   228
10.3041   219
10.3141   197
10.3241   188
10.3341   198
10.3441   186
10.3541   186
10.3641   178
10.3741   180
10.3841   179
10.3941   190
10.4041   171
10.4141   182
10.4241   206
10.4341   198
10.4441   209
10.4541   209
10.4641   193
10.4741   225
10.4841   218
10.4941   200
10.5041   210
10.5141   223
10.5241   203
10.5341   207
10.5441   202
10.5541   206
10.5641   218
10.5741   216
10.5841   242
10.5941   215
10.6041   205
10.6141   225
10.6241   229
10.6341   222
10.6441   227
10.6541   209
10.6641   233
10.6741   232
10.6841   239
10.6941   231
10.7041   217
10.7141   243
10.7241   230
10.7341   259
10.7441   244
10.7541   237
10.7641   257
10.7741   257
10.7841   257
10.7941   277
10.8041   277
10.8141   284
10.8241   299
10.8341   288
10.8441   290
10.8541   294
10.8641   295
10.8741   315
10.8841   323
10.8941   331
10.9041   336
10.9141   322
10.9241   354
10.9341   322
10.9441   304
10.9541   334
10.9641   336
10.9741   327
10.9841   333
10.9941   330
11.0041   327
11.0141   304
11.0241   270
11.0341   278
11.0441   290
11.0541   310
11.0641   291
11.0741   280
11.0841   285
11.0941   280
11.1041   279
11.1141   282
11.1241   287
11.1341   291
11.1441   298
11.1541   302
11.1641   326
11.1741   331
11.1841   336
11.1941   370
11.2041   371
11.2141   371
11.2241   419
11.2341   418
11.2441   423
11.2541   449
11.2641   469
11.2741   440
11.2841   444
11.2941   492
11.3041   462
11.3141   444
11.3241   439
11.3341   430
11.3441   419
11.3541   376
11.3641   363
11.3741   357
11.3841   313
11.3941   296
11.4041   304
11.4141   276
11.4241   258
11.4341   255
11.4441   241
11.4541   222
11.4641   233
11.4741   229
11.4841   226
11.4941   219
11.5041   220
11.5141   206
11.5241   223
11.5341   232
11.5441   223
11.5541   244
11.5641   241
11.5741   246
11.5841   228
11.5941   239
11.6041   242
11.6141   252
11.6241   257
11.6341   254
11.6441   233
11.6541   255
11.6641   272
11.6741   253
11.6841   239
11.6941   246
11.7041   213
11.7141   199
11.7241   217
11.7341   201
11.7441   193
11.7541   205
11.7641   211
11.7741   209
11.7841   191
11.7941   192
11.8041   185
11.8141   158
11.8241   170
11.8341   174
11.8441   162
11.8541   164
11.8641   170
11.8741   174
11.8841   169
11.8941   159
11.9041   165
11.9141   175
11.9241   162
11.9341   155
11.9441   161
11.9541   166
11.9641   174
11.9741   196
11.9841   183
11.9941   166
12.0041   174
12.0141   195
12.0241   181
12.0341   179
12.0441   191
12.0541   188
12.0641   184
12.0741   178
12.0841   171
12.0941   178
12.1041   170
12.1141   174
12.1241   174
12.1341   167
12.1441   167
12.1541   172
12.1641   172
12.1741   172
12.1841   169
12.1941   170
12.2041   179
12.2141   174
12.2241   178
12.2341   179
12.2441   168
12.2541   168
12.2641   150
12.2741   146
12.2841   159
12.2941   171
12.3041   164
12.3141   165
12.3241   156
12.3341   157
12.3441   169
12.3541   180
12.3641   160
12.3741   154
12.3841   172
12.3941   169
12.4041   150
12.4141   156
12.4241   158
12.4341   186
12.4441   191
12.4541   165
12.4641   179
12.4741   181
12.4841   171
12.4941   180
12.5041   178
12.5141   167
12.5241   167
12.5341   166
12.5441   159
12.5541   182
12.5641   199
12.5741   191
12.5841   198
12.5941   190
12.6041   178
12.6141   193
12.6241   189
12.6341   180
12.6441   180
12.6541   176
12.6641   195
12.6741   202
12.6841   188
12.6941   182
12.7041   187
12.7141   185
12.7241   182
12.7341   177
12.7441   179
12.7541   189
12.7641   197
12.7741   195
12.7841   184
12.7941   178
12.8041   182
12.8141   191
12.8241   197
12.8341   203
12.8441   203
12.8541   196
12.8641   193
12.8741   191
12.8841   191
12.8941   196
12.9041   203
12.9141   205
12.9241   200
12.9341   198
12.9441   207
12.9541   211
12.9641   202
12.9741   191
12.9841   187
12.9941   190
13.0041   192
13.0141   198
13.0241   210
13.0341   196
13.0441   192
13.0541   181
13.0641   180
13.0741   182
13.0841   187
13.0941   190
13.1041   193
13.1141   198
13.1241   208
13.1341   204
13.1441   195
13.1541   192
13.1641   203
13.1741   215
13.1841   219
13.1941   224
13.2041   236
13.2141   228
13.2241   224
13.2341   267
13.2441   277
13.2541   262
13.2641   279
13.2741   277
13.2841   294
13.2941   323
13.3041   339
13.3141   334
13.3241   331
13.3341   365
13.3441   372
13.3541   376
13.3641   367
13.3741   385
13.3841   395
13.3941   374
13.4041   360
13.4141   341
13.4241   343
13.4341   342
13.4441   359
13.4541   346
13.4641   310
13.4741   317
13.4841   303
13.4941   295
13.5041   295
13.5141   294
13.5241   275
13.5341   248
13.5441   256
13.5541   259
13.5641   235
13.5741   250
13.5841   258
13.5941   244
13.6041   243
13.6141   231
13.6241   225
13.6341   242
13.6441   233
13.6541   225
13.6641   229
13.6741   222
13.6841   213
13.6941   220
13.7041   247
13.7141   250
13.7241   237
13.7341   248
13.7441   263
13.7541   246
13.7641   228
13.7741   229
13.7841   241
13.7941   252
13.8041   260
13.8141   252
13.8241   235
13.8341   224
13.8441   234
13.8541   245
13.8641   241
13.8741   242
13.8841   238
13.8941   261
13.9041   282
13.9141   267
13.9241   262
13.9341   278
13.9441   290
13.9541   300
13.9641   343
13.9741   368
13.9841   383
13.9941   405
14.0041   417
14.0141   442
14.0241   459
14.0341   491
14.0441   535
14.0541   559
14.0641   568
14.0741   581
14.0841   643
14.0941   698
14.1041   698
14.1141   719
14.1241   755
14.1341   749
14.1441   747
14.1541   753
14.1641   730
14.1741   736
14.1841   724
14.1941   714
14.2041   707
14.2141   630
14.2241   581
14.2341   567
14.2441   554
14.2541   511
14.2641   465
14.2741   441
14.2841   431
14.2941   405
14.3041   342
14.3141   324
14.3241   322
14.3341   296
14.3441   291
14.3541   298
14.3641   292
14.3741   270
14.3841   289
14.3941   297
14.4041   280
14.4141   260
14.4241   252
14.4341   264
14.4441   271
14.4541   282
14.4641   267
14.4741   269
14.4841   283
14.4941   268
14.5041   258
14.5141   268
14.5241   269
14.5341   266
14.5441   279
14.5541   287
14.5641   271
14.5741   268
14.5841   267
14.5941   267
14.6041   277
14.6141   275
14.6241   287
14.6341   292
14.6441   294
14.6541   291
14.6641   270
14.6741   285
14.6841   302
14.6941   284
14.7041   269
14.7141   279
14.7241   284
14.7341   284
14.7441   291
14.7541   300
14.7641   282
14.7741   301
14.7841   331
14.7941   303
14.8041   288
14.8141   300
14.8241   316
14.8341   331
14.8441   338
14.8541   331
14.8641   329
14.8741   349
14.8841   355
14.8941   356
14.9041   373
14.9141   379
14.9241   376
14.9341   384
14.9441   370
14.9541   364
14.9641   365
14.9741   372
14.9841   372
14.9941   364
15.0041   344
15.0141   355
15.0241   372
15.0341   353
15.0441   331
15.0541   326
15.0641   326
15.0741   327
15.0841   352
15.0941   342
15.1041   337
15.1141   321
15.1241   322
15.1341   323
15.1441   306
15.1541   290
15.1641   292
15.1741   308
15.1841   312
15.1941   310
15.2041   313
15.2141   319
15.2241   314
15.2341   315
15.2441   306
15.2541   314
15.2641   283
15.2741   288
15.2841   317
15.2941   329
15.3041   332
15.3141   331
15.3241   308
15.3341   309
15.3441   304
15.3541   321
15.3641   323
15.3741   293
15.3841   313
15.3941   328
15.4041   306
15.4141   318
15.4241   309
15.4341   336
15.4441   354
15.4541   322
15.4641   323
15.4741   344
15.4841   349
15.4941   361
15.5041   368
15.5141   347
15.5241   348
15.5341   370
15.5441   386
15.5541   394
15.5641   401
15.5741   421
15.5841   435
15.5941   465
15.6041   493
15.6141   544
15.6241   562
15.6341   590
15.6441   606
15.6541   617
15.6641   663
15.6741   693
15.6841   730
15.6941   810
15.7041   810
15.7141   810
15.7241   885
15.7341   887
15.7441   849
15.7541   874
15.7641   862
15.7741   869
15.7841   831
15.7941   814
15.8041   832
15.8141   852
15.8241   779
15.8341   779
15.8441   748
15.8541   724
15.8641   693
15.8741   642
15.8841   606
15.8941   566
15.9041   574
15.9141   529
15.9241   479
15.9341   486
15.9441   474
15.9541   453
15.9641   445
15.9741   419
15.9841   405
15.9941   398
16.0041   401
16.0141   385
16.0241   378
16.0341   364
16.0441   362
16.0541   395
16.0641   398
16.0741   395
16.0841   388
16.0941   347
16.1041   365
16.1141   368
16.1241   357
16.1341   361
16.1441   354
16.1541   384
16.1641   363
16.1741   362
16.1841   378
16.1941   366
16.2041   384
16.2141   381
16.2241   370
16.2341   388
16.2441   379
16.2541   374
16.2641   378
16.2741   382
16.2841   348
16.2941   384
16.3041   411
16.3141   381
16.3241   349
16.3341   358
16.3441   381
16.3541   382
16.3641   362
16.3741   359
16.3841   352
16.3941   370
16.4041   363
16.4141   358
16.4241   373
16.4341   386
16.4441   400
16.4541   402
16.4641   414
16.4741   407
16.4841   393
16.4941   408
16.5041   426
16.5141   411
16.5241   405
16.5341   422
16.5441   454
16.5541   428
16.5641   430
16.5741   435
16.5841   431
16.5941   422
16.6041   423
16.6141   435
16.6241   396
16.6341   398
16.6441   405
16.6541   394
16.6641   417
16.6741   439
16.6841   453
16.6941   449
16.7041   445
16.7141   436
16.7241   417
16.7341   378
16.7441   396
16.7541   399
16.7641   408
16.7741   410
16.7841   405
16.7941   423
16.8041   417
16.8141   414
16.8241   402
16.8341   406
16.8441   399
16.8541   393
16.8641   414
16.8741   410
16.8841   407
16.8941   427
16.9041   434
16.9141   429
16.9241   423
16.9341   391
16.9441   422
16.9541   430
16.9641   390
16.9741   408
16.9841   408
16.9941   387
17.0041   434
17.0141   413
17.0241   384
17.0341   405
17.0441   430
17.0541   434
17.0641   423
17.0741   396
17.0841   390
17.0941   400
17.1041   408
17.1141   422
17.1241   393
17.1341   402
17.1441   428
17.1541   419
17.1641   413
17.1741   398
17.1841   408
17.1941   420
17.2041   456
17.2141   458
17.2241   443
17.2341   425
17.2441   435
17.2541   437
17.2641   435
17.2741   463
17.2841   451
17.2941   454
17.3041   443
17.3141   419
17.3241   417
17.3341   438
17.3441   462
17.3541   453
17.3641   454
17.3741   451
17.3841   436
17.3941   434
17.4041   447
17.4141   459
17.4241   461
17.4341   435
17.4441   450
17.4541   462
17.4641   448
17.4741   475
17.4841   460
17.4941   450
17.5041   448
17.5141   473
17.5241   491
17.5341   504
17.5441   500
17.5541   481
17.5641   503
17.5741   494
17.5841   505
17.5941   533
17.6041   524
17.6141   517
17.6241   536
17.6341   537
17.6441   545
17.6541   527
17.6641   540
17.6741   553
17.6841   518
17.6941   460
17.7041   532
17.7141   539
17.7241   553
17.7341   544
17.7441   538
17.7541   557
17.7641   545
17.7741   526
17.7841   489
17.7941   504
17.8041   491
17.8141   483
17.8241   490
17.8341   493
17.8441   482
17.8541   463
17.8641   501
17.8741   517
17.8841   491
17.8941   474
17.9041   513
17.9141   469
17.9241   496
17.9341   491
17.9441   484
17.9541   489
17.9641   495
17.9741   495
17.9841   492
17.9941   468
18.0041   487
18.0141   492
18.0241   474
18.0341   496
18.0441   478
18.0541   475
18.0641   511
18.0741   474
18.0841   474
18.0941   496
18.1041   498
18.1141   475
18.1241   481
18.1341   465
18.1441   454
18.1541   475
18.1641   481
18.1741   493
18.1841   507
18.1941   491
18.2041   499
18.2141   469
18.2241   502
18.2341   500
18.2441   473
18.2541   462
18.2641   503
18.2741   525
18.2841   501
18.2941   492
18.3041   477
18.3141   470
18.3241   500
18.3341   496
18.3441   487
18.3541   486
18.3641   500
18.3741   494
18.3841   526
18.3941   485
18.4041   499
18.4141   521
18.4241   504
18.4341   460
18.4441   503
18.4541   500
18.4641   501
18.4741   504
18.4841   481
18.4941   472
18.5041   516
18.5141   482
18.5241   509
18.5341   501
18.5441   509
18.5541   531
18.5641   508
18.5741   501
18.5841   478
18.5941   509
18.6041   513
18.6141   523
18.6241   523
18.6341   519
18.6441   490
18.6541   494
18.6641   526
18.6741   517
18.6841   504
18.6941   513
18.7041   502
18.7141   507
18.7241   515
18.7341   500
18.7441   509
18.7541   546
18.7641   528
18.7741   549
18.7841   530
18.7941   522
18.8041   518
18.8141   494
18.8241   517
18.8341   507
18.8441   522
18.8541   535
18.8641   529
18.8741   530
18.8841   490
18.8941   499
18.9041   527
18.9141   549
18.9241   532
18.9341   491
18.9441   528
18.9541   533
18.9641   527
18.9741   554
18.9841   536
18.9941   525
19.0041   501
19.0141   514
19.0241   521
19.0341   498
19.0441   510
19.0541   520
19.0641   489
19.0741   527
19.0841   525
19.0941   537
19.1041   535
19.1141   534
19.1241   555
19.1341   536
19.1441   550
19.1541   537
19.1641   528
19.1741   526
19.1841   499
19.1941   497
19.2041   510
19.2141   525
19.2241   528
19.2341   522
19.2441   538
19.2541   506
19.2641   509
19.2741   542
19.2841   505
19.2941   484
19.3041   519
19.3141   528
19.3241   547
19.3341   545
19.3441   523
19.3541   523
19.3641   552
19.3741   533
19.3841   547
19.3941   556
19.4041   559
19.4141   520
19.4241   521
19.4341   541
19.4441   558
19.4541   547
19.4641   524
19.4741   537
19.4841   532
19.4941   529
19.5041   520
19.5141   541
19.5241   561
19.5341   546
19.5441   543
19.5541   539
19.5641   550
19.5741   546
19.5841   544
19.5941   546
19.6041   549
19.6141   550
19.6241   559
19.6341   543
19.6441   552
19.6541   529
19.6641   549
19.6741   561
19.6841   538
19.6941   536
19.7041   560
19.7141   566
19.7241   573
19.7341   530
19.7441   551
19.7541   569
19.7641   554
19.7741   526
19.7841   540
19.7941   545
19.8041   557
19.8141   555
19.8241   555
19.8341   541
19.8441   543
19.8541   567
19.8641   570
19.8741   534
19.8841   533
19.8941   546
19.9041   547
19.9141   547
19.9241   526
19.9341   556
19.9441   566
19.9541   543
19.9641   574
19.9741   567
19.9841   577
19.9941   546
20.0041   557
20.0141   573
20.0241   506
20.0341   532
20.0441   526
20.0541   518
20.0641   529
20.0741   572
20.0841   558
20.0941   587
20.1041   567
20.1141   579
20.1241   565
20.1341   585
20.1441   567
20.1541   578
20.1641   537
20.1741   548
20.1841   551
20.1941   564
20.2041   571
20.2141   546
20.2241   559
20.2341   541
20.2441   572
20.2541   572
20.2641   559
20.2741   532
20.2841   539
20.2941   565
20.3041   587
20.3141   547
20.3241   573
20.3341   529
20.3441   565
20.3541   584
20.3641   566
20.3741   548
20.3841   584
20.3941   581
20.4041   560
20.4141   589
20.4241   611
20.4341   556
20.4441   581
20.4541   597
20.4641   546
20.4741   561
20.4841   584
20.4941   568
20.5041   553
20.5141   558
20.5241   539
20.5341   575
20.5441   564
20.5541   605
20.5641   547
20.5741   539
20.5841   538
20.5941   541
20.6041   540
20.6141   547
20.6241   556
20.6341   600
20.6441   571
20.6541   563
20.6641   531
20.6741   582
20.6841   578
20.6941   525
20.7041   576
20.7141   538
20.7241   543
20.7341   580
20.7441   589
20.7541   588
20.7641   573
20.7741   550
20.7841   550
20.7941   556
20.8041   597
20.8141   578
20.8241   603
20.8341   572
20.8441   603
20.8541   601
20.8641   627
20.8741   576
20.8841   619
20.8941   579
20.9041   606
20.9141   663
20.9241   646
20.9341   708
20.9441   642
20.9541   677
20.9641   654
20.9741   761
20.9841   744
20.9941   700
21.0041   737
21.0141   787
21.0241   751
21.0341   765
21.0441   809
21.0541   781
21.0641   779
21.0741   821
21.0841   835
21.0941   802
21.1041   795
21.1141   834
21.1241   843
21.1341   873
21.1441   801
21.1541   793
21.1641   847
21.1741   810
21.1841   811
21.1941   814
21.2041   834
21.2141   774
21.2241   781
21.2341   800
21.2441   767
21.2541   719
21.2641   760
21.2741   677
21.2841   688
21.2941   688
21.3041   680
21.3141   705
21.3241   668
21.3341   615
21.3441   641
21.3541   591
21.3641   619
21.3741   579
21.3841   556
21.3941   624
21.4041   593
21.4141   602
21.4241   587
21.4341   570
21.4441   559
21.4541   581
21.4641   562
21.4741   571
21.4841   549
21.4941   563
21.5041   566
21.5141   599
21.5241   615
21.5341   583
21.5441   589
21.5541   562
21.5641   533
21.5741   572
21.5841   589
21.5941   540
21.6041   560
21.6141   562
21.6241   590
21.6341   578
21.6441   558
21.6541   563
21.6641   551
21.6741   586
21.6841   565
21.6941   550
21.7041   563
21.7141   554
21.7241   548
21.7341   555
21.7441   579
21.7541   545
21.7641   587
21.7741   620
21.7841   554
21.7941   614
21.8041   588
21.8141   554
21.8241   549
21.8341   543
21.8441   560
21.8541   566
21.8641   623
21.8741   567
21.8841   552
21.8941   553
21.9041   497
21.9141   591
21.9241   559
21.9341   523
21.9441   544
21.9541   610
21.9641   559
21.9741   559
21.9841   580
21.9941   567
22.0041   563
22.0141   577
22.0241   565
22.0341   599
22.0441   576
22.0541   568
22.0641   517
22.0741   546
22.0841   595
22.0941   566
22.1041   542
22.1141   559
22.1241   599
22.1341   549
22.1441   516
22.1541   557
22.1641   560
22.1741   564
22.1841   596
22.1941   575
22.2041   551
22.2141   572
22.2241   548
22.2341   520
22.2441   577
22.2541   595
22.2641   589
22.2741   599
22.2841   596
22.2941   550
22.3041   547
22.3141   534
22.3241   598
22.3341   526
22.3441   514
22.3541   579
22.3641   552
22.3741   535
22.3841   540
22.3941   565
22.4041   579
22.4141   560
22.4241   548
22.4341   577
22.4441   532
22.4541   519
22.4641   542
22.4741   541
22.4841   541
22.4941   554
22.5041   567
22.5141   536
22.5241   568
22.5341   543
22.5441   571
22.5541   574
22.5641   539
22.5741   523
22.5841   539
22.5941   576
22.6041   590
22.6141   522
22.6241   531
22.6341   523
22.6441   565
22.6541   557
22.6641   572
22.6741   546
22.6841   546
22.6941   534
22.7041   572
22.7141   571
22.7241   532
22.7341   530
22.7441   551
22.7541   536
22.7641   604
22.7741   491
22.7841   535
22.7941   561
22.8041   599
22.8141   574
22.8241   551
22.8341   542
22.8441   529
22.8541   577
22.8641   558
22.8741   562
22.8841   508
22.8941   511
22.9041   571
22.9141   579
22.9241   541
22.9341   572
22.9441   530
22.9541   538
22.9641   591
22.9741   537
22.9841   541
22.9941   516
23.0041   536
23.0141   543
23.0241   573
23.0341   511
23.0441   531
23.0541   508
23.0641   527
23.0741   561
23.0841   548
23.0941   545
23.1041   546
23.1141   568
23.1241   496
23.1341   529
23.1441   518
23.1541   528
23.1641   540
23.1741   513
23.1841   543
23.1941   536
23.2041   526
23.2141   529
23.2241   539
23.2341   554
23.2441   516
23.2541   561
23.2641   568
23.2741   536
23.2841   544
23.2941   508
23.3041   556
23.3141   477
23.3241   529
23.3341   495
23.3441   525
23.3541   538
23.3641   539
23.3741   498
23.3841   545
23.3941   495
23.4041   556
23.4141   539
23.4241   540
23.4341   536
23.4441   578
23.4541   511
23.4641   551
23.4741   550
23.4841   526
23.4941   549
23.5041   531
23.5141   515
23.5241   568
23.5341   571
23.5441   535
23.5541   506
23.5641   533
23.5741   498
23.5841   512
23.5941   513
23.6041   523
23.6141   561
23.6241   548
23.6341   530
23.6441   514
23.6541   490
23.6641   542
23.6741   553
23.6841   540
23.6941   542
23.7041   526
23.7141   529
23.7241   564
23.7341   586
23.7441   563
23.7541   550
23.7641   582
23.7741   619
23.7841   573
23.7941   597
23.8041   570
23.8141   587
23.8241   583
23.8341   563
23.8441   529
23.8541   573
23.8641   588
23.8741   560
23.8841   552
23.8941   537
23.9041   548
23.9141   595
23.9241   525
23.9341   586
23.9441   552
23.9541   508
23.9641   551
23.9741   546
23.9841   497
23.9941   518
24.0041   516
24.0141   527
24.0241   530
24.0341   495
24.0441   570
24.0541   534
24.0641   547
24.0741   535
24.0841   550
24.0941   492
24.1041   537
24.1141   553
24.1241   498
24.1341   479
24.1441   537
24.1541   504
24.1641   518
24.1741   566
24.1841   517
24.1941   503
24.2041   520
24.2141   536
24.2241   499
24.2341   518
24.2441   530
24.2541   492
24.2641   543
24.2741   527
24.2841   510
24.2941   497
24.3041   515
24.3141   515
24.3241   497
24.3341   471
24.3441   507
24.3541   567
24.3641   502
24.3741   552
24.3841   521
24.3941   519
24.4041   505
24.4141   477
24.4241   458
24.4341   499
24.4441   520
24.4541   504
24.4641   532
24.4741   477
24.4841   522
24.4941   496
24.5041   508
24.5141   509
24.5241   526
24.5341   531
24.5441   486
24.5541   502
24.5641   518
24.5741   491
24.5841   515
24.5941   480
24.6041   498
24.6141   507
24.6241   499
24.6341   493
24.6441   483
24.6541   522
24.6641   498
24.6741   491
24.6841   446
24.6941   503
24.7041   491
24.7141   491
24.7241   474
24.7341   477
24.7441   456
24.7541   524
24.7641   491
24.7741   514
24.7841   496
24.7941   488
24.8041   497
24.8141   513
24.8241   502
24.8341   467
24.8441   432
24.8541   482
24.8641   482
24.8741   463
24.8841   514
24.8941   480
24.9041   484
24.9141   485
24.9241   498
24.9341   510
24.9441   475
24.9541   488
24.9641   474
24.9741   488
24.9841   483
24.9941   464
25.0041   449
25.0141   538
25.0241   521
25.0341   468
25.0441   465
25.0541   465
25.0641   440
25.0741   486
25.0841   494
25.0941   516
25.1041   501
25.1141   478
25.1241   488
25.1341   513
25.1441   497
25.1541   468
25.1641   484
25.1741   469
25.1841   495
25.1941   469
25.2041   511
25.2141   501
25.2241   506
25.2341   512
25.2441   527
25.2541   468
25.2641   460
25.2741   478
25.2841   521
25.2941   496
25.3041   530
25.3141   468
25.3241   432
25.3341   491
25.3441   435
25.3541   471
25.3641   490
25.3741   467
25.3841   456
25.3941   468
25.4041   500
25.4141   452
25.4241   503
25.4341   502
25.4441   475
25.4541   460
25.4641   428
25.4741   497
25.4841   499
25.4941   462
25.5041   458
25.5141   455
25.5241   459
25.5341   454
25.5441   443
25.5541   469
25.5641   446
25.5741   440
25.5841   466
25.5941   473
25.6041   443
25.6141   444
25.6241   448
25.6341   434
25.6441   445
25.6541   453
25.6641   464
25.6741   446
25.6841   446
25.6941   450
25.7041   401
25.7141   452
25.7241   455
25.7341   455
25.7441   423
25.7541   405
25.7641   426
25.7741   445
25.7841   439
25.7941   457
25.8041   444
25.8141   460
25.8241   460
25.8341   449
25.8441   438
25.8541   488
25.8641   427
25.8741   440
25.8841   484
25.8941   424
25.9041   445
25.9141   425
25.9241   443
25.9341   453
25.9441   438
25.9541   404
25.9641   409
25.9741   420
25.9841   458
25.9941   460
26.0041   432
26.0141   432
26.0241   399
26.0341   437
26.0441   426
26.0541   412
26.0641   442
26.0741   442
26.0841   442
26.0941   469
26.1041   457
26.1141   432
26.1241   461
26.1341   408
26.1441   456
26.1541   420
26.1641   430
26.1741   431
26.1841   456
26.1941   452
26.2041   433
26.2141   430
26.2241   462
26.2341   418
26.2441   426
26.2541   475
26.2641   425
26.2741   405
26.2841   435
26.2941   408
26.3041   456
26.3141   436
26.3241   409
26.3341   396
26.3441   461
26.3541   413
26.3641   456
26.3741   420
26.3841   413
26.3941   428
26.4041   410
26.4141   403
26.4241   426
26.4341   432
26.4441   412
26.4541   425
26.4641   415
26.4741   428
26.4841   431
26.4941   426
26.5041   420
26.5141   431
26.5241   414
26.5341   435
26.5441   440
26.5541   441
26.5641   398
26.5741   435
26.5841   410
26.5941   419
26.6041   424
26.6141   427
26.6241   396
26.6341   423
26.6441   397
26.6541   377
26.6641   404
26.6741   382
26.6841   384
26.6941   408
26.7041   415
26.7141   381
26.7241   426
26.7341   446
26.7441   405
26.7541   416
26.7641   422
26.7741   404
26.7841   373
26.7941   404
26.8041   422
26.8141   391
26.8241   407
26.8341   407
26.8441   411
26.8541   415
26.8641   407
26.8741   363
26.8841   402
26.8941   427
26.9041   395
26.9141   419
26.9241   426
26.9341   425
26.9441   391
26.9541   388
26.9641   389
26.9741   413
26.9841   371
26.9941   378
27.0041   362
27.0141   377
27.0241   372
27.0341   380
27.0441   383
27.0541   404
27.0641   385
27.0741   385
27.0841   385
27.0941   369
27.1041   350
27.1141   377
27.1241   414
27.1341   385
27.1441   456
27.1541   389
27.1641   385
27.1741   338
27.1841   388
27.1941   407
27.2041   389
27.2141   419
27.2241   402
27.2341   385
27.2441   387
27.2541   406
27.2641   378
27.2741   368
27.2841   420
27.2941   417
27.3041   422
27.3141   404
27.3241   394
27.3341   350
27.3441   395
27.3541   361
27.3641   377
27.3741   379
27.3841   342
27.3941   393
27.4041   390
27.4141   391
27.4241   361
27.4341   378
27.4441   411
27.4541   402
27.4641   355
27.4741   360
27.4841   378
27.4941   373
27.5041   334
27.5141   370
27.5241   381
27.5341   380
27.5441   382
27.5541   376
27.5641   351
27.5741   396
27.5841   389
27.5941   386
27.6041   367
27.6141   355
27.6241   356
27.6341   357
27.6441   366
27.6541   329
27.6641   336
27.6741   369
27.6841   332
27.6941   343
27.7041   361
27.7141   368
27.7241   327
27.7341   377
27.7441   381
27.7541   365
27.7641   357
27.7741   378
27.7841   379
27.7941   350
27.8041   366
27.8141   350
27.8241   357
27.8341   358
27.8441   335
27.8541   343
27.8641   362
27.8741   355
27.8841   353
27.8941   356
27.9041   377
27.9141   356
27.9241   328
27.9341   369
27.9441   358
27.9541   334
27.9641   335
27.9741   349
27.9841   337
27.9941   359
28.0041   352
28.0141   340
28.0241   332
28.0341   383
28.0441   344
28.0541   342
28.0641   339
28.0741   334
28.0841   341
28.0941   366
28.1041   326
28.1141   355
28.1241   351
28.1341   386
28.1441   341
28.1541   335
28.1641   344
28.1741   337
28.1841   332
28.1941   337
28.2041   346
28.2141   329
28.2241   316
28.2341   338
28.2441   379
28.2541   344
28.2641   353
28.2741   356
28.2841   320
28.2941   299
28.3041   321
28.3141   325
28.3241   338
28.3341   379
28.3441   332
28.3541   309
28.3641   363
28.3741   306
28.3841   329
28.3941   339
28.4041   354
28.4141   360
28.4241   350
28.4341   356
28.4441   337
28.4541   342
28.4641   325
28.4741   354
28.4841   361
28.4941   353
28.5041   354
28.5141   342
28.5241   372
28.5341   325
28.5441   335
28.5541   330
28.5641   338
28.5741   328
28.5841   330
28.5941   346
28.6041   303
28.6141   340
28.6241   324
28.6341   319
28.6441   337
28.6541   337
28.6641   342
28.6741   322
28.6841   310
28.6941   310
28.7041   300
28.7141   319
28.7241   335
28.7341   287
28.7441   292
28.7541   287
28.7641   293
28.7741   288
28.7841   315
28.7941   347
28.8041   337
28.8141   347
28.8241   319
28.8341   298
28.8441   285
28.8541   295
28.8641   287
28.8741   297
28.8841   305
28.8941   312
28.9041   336
28.9141   317
28.9241   328
28.9341   320
28.9441   316
28.9541   315
28.9641   340
28.9741   317
28.9841   315
28.9941   334
29.0041   318
29.0141   272
29.0241   335
29.0341   326
29.0441   322
29.0541   335
29.0641   312
29.0741   291
29.0841   320
29.0941   313
29.1041   292
29.1141   278
29.1241   335
29.1341   291
29.1441   285
29.1541   287
29.1641   266
29.1741   287
29.1841   305
29.1941   271
29.2041   302
29.2141   304
29.2241   303
29.2341   295
29.2441   291
29.2541   276
29.2641   307
29.2741   268
29.2841   273
29.2941   287
29.3041   278
29.3141   275
29.3241   278
29.3341   292
29.3441   300
29.3541   290
29.3641   302
29.3741   296
29.3841   278
29.3941   302
29.4041   310
29.4141   307
29.4241   280
29.4341   280
29.4441   286
29.4541   282
29.4641   273
29.4741   284
29.4841   287
29.4941   299
29.5041   287
29.5141   267
29.5241   301
29.5341   293
29.5441   290
29.5541   291
29.5641   268
29.5741   244
29.5841   270
29.5941   309
29.6041   281
29.6141   283
29.6241   248
29.6341   287
29.6441   267
29.6541   263
29.6641   274
29.6741   287
29.6841   298
29.6941   261
29.7041   318
29.7141   279
29.7241   281
29.7341   271
29.7441   266
29.7541   256
29.7641   306
29.7741   281
29.7841   272
29.7941   275
29.8041   296
29.8141   294
29.8241   283
29.8341   274
29.8441   270
29.8541   278
29.8641   268
29.8741   261
29.8841   277
29.8941   283
29.9041   259
29.9141   256
29.9241   258
29.9341   289
29.9441   254
29.9541   278
29.9641   254
29.9741   278
29.9841   269
29.9941   279
30.0041   267
30.0141   267
30.0241   288
30.0341   259
30.0441   251
30.0541   246
30.0641   248
30.0741   250
30.0841   281
30.0941   260
30.1041   279
30.1141   260
30.1241   293
30.1341   267
30.1441   271
30.1541   256
30.1641   266
30.1741   251
30.1841   252
30.1941   249
30.2041   266
30.2141   246
30.2241   252
30.2341   260
30.2441   248
30.2541   254
30.2641   268
30.2741   239
30.2841   246
30.2941   297
30.3041   259
30.3141   241
30.3241   246
30.3341   278
30.3441   270
30.3541   252
30.3641   256
30.3741   260
30.3841   249
30.3941   264
30.4041   268
30.4141   223
30.4241   258
30.4341   253
30.4441   254
30.4541   258
30.4641   250
30.4741   242
30.4841   255
30.4941   272
30.5041   242
30.5141   238
30.5241   235
30.5341   262
30.5441   252
30.5541   258
30.5641   265
30.5741   228
30.5841   251
30.5941   252
30.6041   225
30.6141   233
30.6241   249
30.6341   229
30.6441   256
30.6541   243
30.6641   257
30.6741   281
30.6841   242
30.6941   243
30.7041   251
30.7141   228
30.7241   241
30.7341   239
30.7441   246
30.7541   242
30.7641   219
30.7741   244
30.7841   256
30.7941   215
30.8041   228
30.8141   246
30.8241   219
30.8341   239
30.8441   223
30.8541   206
30.8641   221
30.8741   226
30.8841   235
30.8941   228
30.9041   229
30.9141   233
30.9241   229
30.9341   257
30.9441   216
30.9541   231
30.9641   239
30.9741   252
30.9841   197
30.9941   260
31.0041   234
31.0141   243
31.0241   255
31.0341   247
31.0441   222
31.0541   236
31.0641   217
31.0741   205
31.0841   250
31.0941   228
31.1041   203
31.1141   233
31.1241   228
31.1341   235
31.1441   215
31.1541   210
31.1641   214
31.1741   214
31.1841   235
31.1941   192
31.2041   210
31.2141   253
31.2241   216
31.2341   209
31.2441   214
31.2541   240
31.2641   222
31.2741   226
31.2841   236
31.2941   230
31.3041   204
31.3141   211
31.3241   232
31.3341   212
31.3441   210
31.3541   215
31.3641   226
31.3741   232
31.3841   212
31.3941   203
31.4041   228
31.4141   207
31.4241   244
31.4341   211
31.4441   221
31.4541   212
31.4641   204
31.4741   230
31.4841   201
31.4941   200
31.5041   198
31.5141   206
31.5241   165
31.5341   209
31.5441   202
31.5541   231
31.5641   210
31.5741   220
31.5841   232
31.5941   213
31.6041   229
31.6141   218
31.6241   234
31.6341   230
31.6441   204
31.6541   222
31.6641   229
31.6741   209
31.6841   209
31.6941   211
31.7041   210
31.7141   223
31.7241   198
31.7341   231
31.7441   195
31.7541   213
31.7641   210
31.7741   212
31.7841   217
31.7941   201
31.8041   227
31.8141   232
31.8241   216
31.8341   222
31.8441   220
31.8541   196
31.8641   219
31.8741   223
31.8841   225
31.8941   204
31.9041   203
31.9141   214
31.9241   216
31.9341   208
31.9441   208
31.9541   213
31.9641   241
31.9741   198
31.9841   208
31.9941   199
32.0041   217
32.0141   208
32.0241   201
32.0341   203
32.0441   224
32.0541   212
32.0641   203
32.0741   241
32.0841   216
32.0941   223
32.1041   206
32.1141   218
32.1241   217
32.1341   223
32.1441   223
32.1541   241
32.1641   213
32.1741   207
32.1841   204
32.1941   208
32.2041   201
32.2141   222
32.2241   218
32.2341   211
32.2441   203
32.2541   204
32.2641   235
32.2741   197
32.2841   231
32.2941   225
32.3041   219
32.3141   199
32.3241   195
32.3341   188
32.3441   215
32.3541   197
32.3641   195
32.3741   209
32.3841   199
32.3941   187
32.4041   180
32.4141   186
32.4241   185
32.4341   182
32.4441   199
32.4541   203
32.4641   183
32.4741   175
32.4841   184
32.4941   186
32.5041   179
32.5141   202
32.5241   174
32.5341   191
32.5441   181
32.5541   166
32.5641   185
32.5741   170
32.5841   224
32.5941   171
32.6041   196
32.6141   178
32.6241   185
32.6341   161
32.6441   189
32.6541   183
32.6641   163
32.6741   169
32.6841   178
32.6941   155
32.7041   151
32.7141   197
32.7241   187
32.7341   180
32.7441   188
32.7541   155
32.7641   191
32.7741   192
32.7841   181
32.7941   177
32.8041   181
32.8141   134
32.8241   164
32.8341   157
32.8441   160
32.8541   172
32.8641   158
32.8741   168
32.8841   170
32.8941   148
32.9041   172
32.9141   164
32.9241   165
32.9341   157
32.9441   160
32.9541   178
32.9641   162
32.9741   163
32.9841   174
32.9941   176
33.0041   173
33.0141   168
33.0241   157
33.0341   167
33.0441   164
33.0541   167
33.0641   150
33.0741   149
33.0841   172
33.0941   171
33.1041   185
33.1141   165
33.1241   151
33.1341   183
33.1441   165
33.1541   146
33.1641   159
33.1741   176
33.1841   171
33.1941   166
33.2041   167
33.2141   159
33.2241   152
33.2341   156
33.2441   168
33.2541   153
33.2641   165
33.2741   184
33.2841   147
33.2941   142
33.3041   160
33.3141   145
33.3241   141
33.3341   155
33.3441   136
33.3541   174
33.3641   171
33.3741   136
33.3841   160
33.3941   144
33.4041   135
33.4141   142
33.4241   172
33.4341   150
33.4441   149
33.4541   143
33.4641   146
33.4741   140
33.4841   155
33.4941   151
33.5041   156
33.5141   167
33.5241   153
33.5341   139
33.5441   150
33.5541   153
33.5641   172
33.5741   164
33.5841   165
33.5941   130
33.6041   126
33.6141   163
33.6241   146
33.6341   138
33.6441   166
33.6541   143
33.6641   157
33.6741   145
33.6841   149
33.6941   149
33.7041   131
33.7141   143
33.7241   146
33.7341   137
33.7441   151
33.7541   171
33.7641   144
33.7741   127
33.7841   155
33.7941   144
33.8041   131
33.8141   136
33.8241   134
33.8341   148
33.8441   131
33.8541   145
33.8641   140
33.8741   148
33.8841   142
33.8941   148
33.9041   138
33.9141   133
33.9241   135
33.9341   130
33.9441   147
33.9541   137
33.9641   151
33.9741   133
33.9841   127
33.9941   136
34.0041   126
34.0141   128
34.0241   134
34.0341   143
34.0441   109
34.0541   116
34.0641   139
34.0741   146
34.0841   137
34.0941   127
34.1041   133
34.1141   136
34.1241   146
34.1341   141
34.1441   157
34.1541   128
34.1641   165
34.1741   130
34.1841   124
34.1941   127
34.2041   144
34.2141   140
34.2241   124
34.2341   145
34.2441   144
34.2541   131
34.2641   135
34.2741   117
34.2841   134
34.2941   139
34.3041   130
34.3141   139
34.3241   106
34.3341   128
34.3441   134
34.3541   143
34.3641   125
34.3741   125
34.3841   120
34.3941   100
34.4041   116
34.4141   130
34.4241   118
34.4341   114
34.4441   139
34.4541   132
34.4641   131
34.4741   126
34.4841   136
34.4941   115
34.5041   127
34.5141   107
34.5241   122
34.5341   127
34.5441   141
34.5541   132
34.5641   133
34.5741   129
34.5841   126
34.5941   119
34.6041   112
34.6141   141
34.6241   138
34.6341   111
34.6441   120
34.6541   143
34.6641   146
34.6741   120
34.6841   113
34.6941   136
34.7041   114
34.7141   130
34.7241   121
34.7341   162
34.7441   120
34.7541   116
34.7641   120
34.7741   124
34.7841   116
34.7941   132
34.8041   113
34.8141   123
34.8241   128
34.8341   120
34.8441   124
34.8541   106
34.8641   119
34.8741   124
34.8841   125
34.8941   116
34.9041   110
34.9141   120
34.9241   107
34.9341   112
34.9441   118
34.9541   144
34.9641   106
34.9741   119
34.9841    95
34.9941   104
35.0041   114
35.0141    98
35.0241   109
35.0341   117
35.0441   106
35.0541   101
35.0641   103
35.0741   113
35.0841   100
35.0941   111
35.1041   104
35.1141   128
35.1241   105
35.1341   108
35.1441   104
35.1541   104
35.1641   105
35.1741   107
35.1841    98
35.1941   120
35.2041   128
35.2141   100
35.2241   104
35.2341   115
35.2441    99
35.2541   100
35.2641    96
35.2741    97
35.2841    83
35.2941   104
35.3041    93
35.3141   100
35.3241    95
35.3341   114
35.3441   116
35.3541   106
35.3641    95
35.3741   116
35.3841    98
35.3941   109
35.4041   100
35.4141   123
35.4241   103
35.4341   105
35.4441   103
35.4541   118
35.4641   110
35.4741    91
35.4841    95
35.4941   105
35.5041   105
35.5141    99
35.5241   107
35.5341    97
35.5441    89
35.5541    86
35.5641   108
35.5741   114
35.5841   102
35.5941   103
35.6041    89
35.6141    88
35.6241   101
35.6341    88
35.6441   102
35.6541    99
35.6641    74
35.6741    92
35.6841   103
35.6941    96
35.7041    89
35.7141    95
35.7241   108
35.7341    95
35.7441    98
35.7541    93
35.7641   107
35.7741   114
35.7841    95
35.7941    95
35.8041   113
35.8141    88
35.8241    95
35.8341   101
35.8441    95
35.8541   105
35.8641   104
35.8741    92
35.8841   103
35.8941    92
35.9041    98
35.9141    96
35.9241    92
35.9341    81
35.9441    96
35.9541    99
35.9641    90
35.9741    97
35.9841    95
35.9941    94
36.0041    92
36.0141   105
36.0241    90
36.0341    90
36.0441    92
36.0541    77
36.0641    89
36.0741    97
36.0841    78
36.0941    83
36.1041    89
36.1141    85
36.1241    88
36.1341    90
36.1441    94
36.1541   103
36.1641    81
36.1741    93
36.1841    75
36.1941   106
36.2041    85
36.2141    88
36.2241    88
36.2341    79
36.2441    93
36.2541    89
36.2641    78
36.2741    83
36.2841    93
36.2941    90
36.3041   114
36.3141    76
36.3241   102
36.3341    77
36.3441    89
36.3541    94
36.3641    86
36.3741    92
36.3841    85
36.3941    92
36.4041    67
36.4141    79
36.4241   101
36.4341    91
36.4441    79
36.4541    95
36.4641    95
36.4741   102
36.4841    80
36.4941    87
36.5041    78
36.5141    79
36.5241    81
36.5341    76
36.5441    77
36.5541    74
36.5641    79
36.5741    68
36.5841    84
36.5941    78
36.6041    90
36.6141    73
36.6241    71
36.6341    60
36.6441    78
36.6541    85
36.6641    73
36.6741    75
36.6841    72
36.6941    74
36.7041    78
36.7141    76
36.7241    67
36.7341    91
36.7441    85
36.7541    77
36.7641    78
36.7741    80
36.7841    68
36.7941    81
36.8041    62
36.8141    70
36.8241    70
36.8341    67
36.8441    76
36.8541    75
36.8641    82
36.8741    71
36.8841    76
36.8941    73
36.9041    65
36.9141    74
36.9241    80
36.9341    80
36.9441    74
36.9541    88
36.9641    81
36.9741    79
36.9841    76
36.9941    70
37.0041    75
37.0141    72
37.0241    86
37.0341    90
37.0441    63
37.0541    83
37.0641    62
37.0741    70
37.0841    67
37.0941    68
37.1041    76
37.1141    70
37.1241    65
37.1341    74
37.1441    78
37.1541    68
37.1641    66
37.1741    60
37.1841    90
37.1941    79
37.2041    81
37.2141    69
37.2241    49
37.2341    59
37.2441    77
37.2541    68
37.2641    58
37.2741    68
37.2841    96
37.2941    60
37.3041    75
37.3141    73
37.3241    64
37.3341    74
37.3441    68
37.3541    55
37.3641    79
37.3741    74
37.3841    60
37.3941    51
37.4041    58
37.4141    66
37.4241    67
37.4341    68
37.4441    51
37.4541    69
37.4641    75
37.4741    69
37.4841    69
37.4941    58
37.5041    66
37.5141    77
37.5241    51
37.5341    81
37.5441    69
37.5541    55
37.5641    58
37.5741    68
37.5841    56
37.5941    70
37.6041    65
37.6141    68
37.6241    54
37.6341    48
37.6441    72
37.6541    61
37.6641    49
37.6741    57
37.6841    72
37.6941    48
37.7041    66
37.7141    72
37.7241    65
37.7341    56
37.7441    70
37.7541    52
37.7641    62
37.7741    70
37.7841    67
37.7941    48
37.8041    63
37.8141    64
37.8241    43
37.8341    46
37.8441    52
37.8541    57
37.8641    49
37.8741    63
37.8841    55
37.8941    52
37.9041    64
37.9141    52
37.9241    60
37.9341    56
37.9441    56
37.9541    54
37.9641    45
37.9741    63
37.9841    59
37.9941    65
38.0041    61
38.0141    52
38.0241    44
38.0341    53
38.0441    40
38.0541    39
38.0641    58
38.0741    53
38.0841    48
38.0941    66
38.1041    58
38.1141    58
38.1241    53
38.1341    58
38.1441    60
38.1541    60
38.1641    55
38.1741    56
38.1841    51
38.1941    60
38.2041    44
38.2141    55
38.2241    45
38.2341    53
38.2441    57
38.2541    59
38.2641    50
38.2741    56
38.2841    52
38.2941    59
38.3041    50
38.3141    51
38.3241    57
38.3341    56
38.3441    42
38.3541    52
38.3641    52
38.3741    41
38.3841    53
38.3941    34
38.4041    42
38.4141    52
38.4241    51
38.4341    45
38.4441    53
38.4541    47
38.4641    63
38.4741    45
38.4841    59
38.4941    34
38.5041    46
38.5141    50
38.5241    51
38.5341    46
38.5441    49
38.5541    60
38.5641    37
38.5741    45
38.5841    33
38.5941    44
38.6041    47
38.6141    50
38.6241    44
38.6341    46
38.6441    56
38.6541    46
38.6641    38
38.6741    29
38.6841    37
38.6941    50
38.7041    48
38.7141    42
38.7241    45
38.7341    54
38.7441    30
38.7541    54
38.7641    44
38.7741    40
38.7841    52
38.7941    45
38.8041    47
38.8141    44
38.8241    50
38.8341    39
38.8441    44
38.8541    40
38.8641    55
38.8741    37
38.8841    57
38.8941    42
38.9041    42
38.9141    49
38.9241    39
38.9341    52
38.9441    34
38.9541    29
38.9641    45
38.9741    58
38.9841    47
38.9941    31
39.0041    50
39.0141    46
39.0241    41
39.0341    36
39.0441    45
39.0541    30
39.0641    33
39.0741    35
39.0841    38
39.0941    47
39.1041    34
39.1141    43
39.1241    41
39.1341    37
39.1441    30
39.1541    41
39.1641    37
39.1741    39
39.1841    35
39.1941    48
39.2041    39
39.2141    31
39.2241    30
39.2341    36
39.2441    34
39.2541    37
39.2641    37
39.2741    35
39.2841    38
39.2941    45
39.3041    30
39.3141    55
39.3241    27
39.3341    39
39.3441    35
39.3541    38
39.3641    28
39.3741    43
39.3841    35
39.3941    28
39.4041    32
39.4141    36
39.4241    32
39.4341    32
39.4441    36
39.4541    34
39.4641    44
39.4741    37
39.4841    32
39.4941    43
39.5041    32
39.5141    32
39.5241    31
39.5341    40
39.5441    36
39.5541    31
39.5641    32
39.5741    38
39.5841    40
39.5941    37
39.6041    33
39.6141    28
39.6241    29
39.6341    41
39.6441    28
39.6541    29
39.6641    33
39.6741    29
39.6841    34
39.6941    29
39.7041    37
39.7141    38
39.7241    47
39.7341    22
39.7441    33
39.7541    30
39.7641    23
39.7741    35
39.7841    33
39.7941    28
39.8041    32
39.8141    26
39.8241    35
39.8341    32
39.8441    28
39.8541    26
39.8641    32
39.8741    28
39.8841    26
39.8941    28
39.9041    28
39.9141    28
39.9241    22
39.9341    23
39.9441    35
39.9541    30
39.9641    35
39.9741    35
39.9841    29
