Bruker Nano GmbH Berlin, Germany
Esprit 1.9

Date: 5/14/2021 1:41:50 PM
Real time: 21845
Life time: 20615
Pulse density: 81421


Detector type: XFlash 430
Window type: Custom type
Detector thickness: 0.45
Si dead layer:0.029

Calibration, lin.: 10
Calibration, abs.: -955.9
Mn FWHM: 137.05
Fano factor: 0.121
Channels: 4096

Energy Counts
-0.9559     0
-0.9459     0
-0.9359     0
-0.9259     0
-0.9159     0
-0.9059     0
-0.8959     0
-0.8859     0
-0.8759     0
-0.8659     0
-0.8559     0
-0.8459     0
-0.8359     0
-0.8259     0
-0.8159     0
-0.8059     0
-0.7959     0
-0.7859     0
-0.7759     0
-0.7659     0
-0.7559     0
-0.7459     0
-0.7359     0
-0.7259     0
-0.7159     0
-0.7059     0
-0.6959     0
-0.6859     0
-0.6759     0
-0.6659     0
-0.6559     0
-0.6459     0
-0.6359     0
-0.6259     0
-0.6159     0
-0.6059     0
-0.5959     0
-0.5859     0
-0.5759     0
-0.5659     0
-0.5559     0
-0.5459     0
-0.5359     0
-0.5259     0
-0.5159     0
-0.5059     0
-0.4959     0
-0.4859     0
-0.4759     0
-0.4659     0
-0.4559     0
-0.4459     0
-0.4359     0
-0.4259     0
-0.4159     0
-0.4059     0
-0.3959     0
-0.3859     0
-0.3759     0
-0.3659     0
-0.3559     0
-0.3459     0
-0.3359     0
-0.3259     0
-0.3159     0
-0.3059     0
-0.2959     0
-0.2859     0
-0.2759     0
-0.2659     0
-0.2559     0
-0.2459     0
-0.2359     0
-0.2259     0
-0.2159     0
-0.2059     0
-0.1959     0
-0.1859     0
-0.1759     0
-0.1659     0
-0.1559     0
-0.1459     0
-0.1359     1
-0.1259     0
-0.1159     1
-0.1059    13
-0.0959    53
-0.0859   247
-0.0759   829
-0.0659  2336
-0.0559  6044
-0.0459 12915
-0.0359 24471
-0.0259 38942
-0.0159 54026
-0.0059 63348
 0.0041 63451
 0.0141 54602
 0.0241 40428
 0.0341 25806
 0.0441 13967
 0.0541  6392
 0.0641  2673
 0.0741   886
 0.0841   270
 0.0941    85
 0.1041    23
 0.1141    12
 0.1241    11
 0.1341     7
 0.1441    10
 0.1541     4
 0.1641     0
 0.1741    28
 0.1841   190
 0.1941   341
 0.2041   325
 0.2141   299
 0.2241   331
 0.2341   321
 0.2441   336
 0.2541   315
 0.2641   294
 0.2741   298
 0.2841   320
 0.2941   305
 0.3041   327
 0.3141   315
 0.3241   279
 0.3341   308
 0.3441   317
 0.3541   316
 0.3641   306
 0.3741   281
 0.3841   300
 0.3941   303
 0.4041   291
 0.4141   278
 0.4241   289
 0.4341   276
 0.4441   277
 0.4541   275
 0.4641   271
 0.4741   288
 0.4841   270
 0.4941   265
 0.5041   258
 0.5141   268
 0.5241   260
 0.5341   263
 0.5441   283
 0.5541   277
 0.5641   266
 0.5741   239
 0.5841   244
 0.5941   256
 0.6041   246
 0.6141   248
 0.6241   253
 0.6341   257
 0.6441   253
 0.6541   242
 0.6641   242
 0.6741   238
 0.6841   245
 0.6941   255
 0.7041   255
 0.7141   245
 0.7241   244
 0.7341   243
 0.7441   249
 0.7541   235
 0.7641   217
 0.7741   240
 0.7841   258
 0.7941   238
 0.8041   233
 0.8141   233
 0.8241   225
 0.8341   225
 0.8441   252
 0.8541   270
 0.8641   234
 0.8741   208
 0.8841   227
 0.8941   215
 0.9041   215
 0.9141   230
 0.9241   235
 0.9341   221
 0.9441   209
 0.9541   219
 0.9641   214
 0.9741   213
 0.9841   212
 0.9941   194
 1.0041   204
 1.0141   213
 1.0241   215
 1.0341   198
 1.0441   195
 1.0541   210
 1.0641   205
 1.0741   187
 1.0841   191
 1.0941   208
 1.1041   222
 1.1141   209
 1.1241   214
 1.1341   212
 1.1441   229
 1.1541   220
 1.1641   209
 1.1741   180
 1.1841   200
 1.1941   211
 1.2041   210
 1.2141   186
 1.2241   191
 1.2341   191
 1.2441   193
 1.2541   180
 1.2641   194
 1.2741   212
 1.2841   199
 1.2941   178
 1.3041   190
 1.3141   184
 1.3241   201
 1.3341   191
 1.3441   182
 1.3541   193
 1.3641   187
 1.3741   194
 1.3841   191
 1.3941   191
 1.4041   179
 1.4141   179
 1.4241   187
 1.4341   193
 1.4441   193
 1.4541   182
 1.4641   173
 1.4741   175
 1.4841   194
 1.4941   163
 1.5041   164
 1.5141   179
 1.5241   176
 1.5341   178
 1.5441   179
 1.5541   192
 1.5641   195
 1.5741   186
 1.5841   182
 1.5941   193
 1.6041   182
 1.6141   177
 1.6241   162
 1.6341   210
 1.6441   230
 1.6541   226
 1.6641   275
 1.6741   352
 1.6841   404
 1.6941   498
 1.7041   606
 1.7141   700
 1.7241   829
 1.7341   849
 1.7441   859
 1.7541   786
 1.7641   712
 1.7741   593
 1.7841   517
 1.7941   417
 1.8041   355
 1.8141   289
 1.8241   255
 1.8341   246
 1.8441   228
 1.8541   231
 1.8641   212
 1.8741   221
 1.8841   218
 1.8941   224
 1.9041   197
 1.9141   184
 1.9241   195
 1.9341   203
 1.9441   186
 1.9541   206
 1.9641   193
 1.9741   208
 1.9841   222
 1.9941   225
 2.0041   222
 2.0141   231
 2.0241   207
 2.0341   217
 2.0441   207
 2.0541   197
 2.0641   180
 2.0741   183
 2.0841   176
 2.0941   161
 2.1041   177
 2.1141   157
 2.1241   153
 2.1341   159
 2.1441   167
 2.1541   172
 2.1641   191
 2.1741   147
 2.1841   166
 2.1941   171
 2.2041   167
 2.2141   154
 2.2241   141
 2.2341   147
 2.2441   157
 2.2541   169
 2.2641   158
 2.2741   173
 2.2841   159
 2.2941   155
 2.3041   155
 2.3141   171
 2.3241   162
 2.3341   158
 2.3441   137
 2.3541   165
 2.3641   144
 2.3741   150
 2.3841   156
 2.3941   134
 2.4041   140
 2.4141   129
 2.4241   152
 2.4341   153
 2.4441   158
 2.4541   143
 2.4641   152
 2.4741   151
 2.4841   146
 2.4941   145
 2.5041   159
 2.5141   168
 2.5241   144
 2.5341   144
 2.5441   146
 2.5541   141
 2.5641   124
 2.5741   138
 2.5841   141
 2.5941   158
 2.6041   120
 2.6141   143
 2.6241   125
 2.6341   135
 2.6441   135
 2.6541   141
 2.6641   127
 2.6741   129
 2.6841   147
 2.6941   132
 2.7041   149
 2.7141   124
 2.7241   137
 2.7341   146
 2.7441   143
 2.7541   141
 2.7641   129
 2.7741   141
 2.7841   152
 2.7941   142
 2.8041   124
 2.8141   151
 2.8241   130
 2.8341   151
 2.8441   135
 2.8541   131
 2.8641   132
 2.8741   128
 2.8841   152
 2.8941   124
 2.9041   143
 2.9141   126
 2.9241   133
 2.9341   113
 2.9441   118
 2.9541   108
 2.9641   142
 2.9741   147
 2.9841   115
 2.9941   117
 3.0041   130
 3.0141   122
 3.0241   114
 3.0341   128
 3.0441   102
 3.0541   130
 3.0641    96
 3.0741   106
 3.0841   130
 3.0941   147
 3.1041   104
 3.1141   118
 3.1241   124
 3.1341   119
 3.1441   104
 3.1541   101
 3.1641   109
 3.1741   103
 3.1841   108
 3.1941   114
 3.2041   116
 3.2141   122
 3.2241   116
 3.2341   118
 3.2441   110
 3.2541   109
 3.2641   144
 3.2741   144
 3.2841   167
 3.2941   135
 3.3041   155
 3.3141   166
 3.3241   154
 3.3341   148
 3.3441   144
 3.3541   131
 3.3641   146
 3.3741   134
 3.3841   105
 3.3941   110
 3.4041   102
 3.4141   104
 3.4241    96
 3.4341    91
 3.4441   113
 3.4541    97
 3.4641   103
 3.4741   110
 3.4841    97
 3.4941   104
 3.5041   113
 3.5141   107
 3.5241    97
 3.5341   111
 3.5441   122
 3.5541   130
 3.5641   155
 3.5741   172
 3.5841   204
 3.5941   264
 3.6041   353
 3.6141   426
 3.6241   524
 3.6341   674
 3.6441   780
 3.6541   909
 3.6641   973
 3.6741  1142
 3.6841  1131
 3.6941  1129
 3.7041  1129
 3.7141  1030
 3.7241   931
 3.7341   839
 3.7441   718
 3.7541   521
 3.7641   418
 3.7741   307
 3.7841   245
 3.7941   230
 3.8041   152
 3.8141   133
 3.8241   103
 3.8341   108
 3.8441    83
 3.8541    96
 3.8641    99
 3.8741    96
 3.8841    96
 3.8941   100
 3.9041   122
 3.9141   111
 3.9241   137
 3.9341   145
 3.9441   154
 3.9541   160
 3.9641   146
 3.9741   166
 3.9841   218
 3.9941   224
 4.0041   232
 4.0141   213
 4.0241   226
 4.0341   218
 4.0441   185
 4.0541   179
 4.0641   170
 4.0741   137
 4.0841   137
 4.0941   108
 4.1041   108
 4.1141   113
 4.1241    92
 4.1341    82
 4.1441    85
 4.1541    79
 4.1641    77
 4.1741    87
 4.1841    92
 4.1941    74
 4.2041    73
 4.2141    73
 4.2241    70
 4.2341    63
 4.2441    81
 4.2541    73
 4.2641    73
 4.2741    68
 4.2841    72
 4.2941    69
 4.3041    74
 4.3141    74
 4.3241    66
 4.3341    73
 4.3441    89
 4.3541    79
 4.3641    85
 4.3741   109
 4.3841   103
 4.3941   120
 4.4041   135
 4.4141   159
 4.4241   206
 4.4341   227
 4.4441   250
 4.4541   308
 4.4641   339
 4.4741   416
 4.4841   437
 4.4941   464
 4.5041   440
 4.5141   420
 4.5241   467
 4.5341   413
 4.5441   349
 4.5541   332
 4.5641   295
 4.5741   228
 4.5841   201
 4.5941   171
 4.6041   119
 4.6141   126
 4.6241   113
 4.6341    89
 4.6441    96
 4.6541    98
 4.6641   100
 4.6741    89
 4.6841   105
 4.6941    79
 4.7041    87
 4.7141    80
 4.7241    92
 4.7341    75
 4.7441    81
 4.7541    87
 4.7641    80
 4.7741   102
 4.7841   106
 4.7941    97
 4.8041    89
 4.8141    98
 4.8241   113
 4.8341    99
 4.8441   106
 4.8541   115
 4.8641   133
 4.8741   117
 4.8841   129
 4.8941   137
 4.9041   161
 4.9141   141
 4.9241   160
 4.9341   154
 4.9441   141
 4.9541   134
 4.9641   152
 4.9741   136
 4.9841   105
 4.9941   123
 5.0041   129
 5.0141   107
 5.0241   102
 5.0341    84
 5.0441    93
 5.0541   102
 5.0641    89
 5.0741    87
 5.0841    90
 5.0941    77
 5.1041    77
 5.1141    75
 5.1241    97
 5.1341    87
 5.1441    66
 5.1541    94
 5.1641   108
 5.1741    88
 5.1841    89
 5.1941    77
 5.2041    62
 5.2141    84
 5.2241    86
 5.2341    76
 5.2441    84
 5.2541    75
 5.2641    82
 5.2741    83
 5.2841    95
 5.2941    99
 5.3041    92
 5.3141   106
 5.3241   113
 5.3341   120
 5.3441   104
 5.3541   116
 5.3641   122
 5.3741   127
 5.3841   163
 5.3941   147
 5.4041   160
 5.4141   156
 5.4241   150
 5.4341   164
 5.4441   137
 5.4541   141
 5.4641   119
 5.4741   111
 5.4841   106
 5.4941   118
 5.5041   111
 5.5141   131
 5.5241   110
 5.5341    88
 5.5441   108
 5.5541    93
 5.5641   107
 5.5741   103
 5.5841   114
 5.5941   104
 5.6041   102
 5.6141   116
 5.6241   103
 5.6341   105
 5.6441   103
 5.6541   102
 5.6641    94
 5.6741    89
 5.6841    99
 5.6941    88
 5.7041    97
 5.7141    98
 5.7241    99
 5.7341    94
 5.7441   108
 5.7541   105
 5.7641   128
 5.7741   109
 5.7841   148
 5.7941   126
 5.8041   167
 5.8141   174
 5.8241   191
 5.8341   229
 5.8441   235
 5.8541   254
 5.8641   269
 5.8741   272
 5.8841   315
 5.8941   294
 5.9041   297
 5.9141   278
 5.9241   291
 5.9341   251
 5.9441   218
 5.9541   208
 5.9641   224
 5.9741   192
 5.9841   196
 5.9941   140
 6.0041   129
 6.0141   110
 6.0241   129
 6.0341   123
 6.0441   104
 6.0541   104
 6.0641   108
 6.0741   127
 6.0841   118
 6.0941   105
 6.1041   105
 6.1141   108
 6.1241   121
 6.1341   120
 6.1441   124
 6.1541   111
 6.1641   123
 6.1741   140
 6.1841   152
 6.1941   200
 6.2041   216
 6.2141   260
 6.2241   304
 6.2341   391
 6.2441   569
 6.2541   801
 6.2641   956
 6.2741  1361
 6.2841  1730
 6.2941  2364
 6.3041  3043
 6.3141  3691
 6.3241  4649
 6.3341  5609
 6.3441  6411
 6.3541  7313
 6.3641  8069
 6.3741  8663
 6.3841  9209
 6.3941  9583
 6.4041  9523
 6.4141  9199
 6.4241  8826
 6.4341  7904
 6.4441  7117
 6.4541  6258
 6.4641  5209
 6.4741  4363
 6.4841  3471
 6.4941  2728
 6.5041  2159
 6.5141  1586
 6.5241  1158
 6.5341   855
 6.5441   619
 6.5541   466
 6.5641   353
 6.5741   246
 6.5841   210
 6.5941   196
 6.6041   163
 6.6141   145
 6.6241   116
 6.6341   134
 6.6441   128
 6.6541   144
 6.6641   120
 6.6741   143
 6.6841   128
 6.6941   138
 6.7041   123
 6.7141   140
 6.7241   129
 6.7341   146
 6.7441   127
 6.7541   138
 6.7641   151
 6.7741   152
 6.7841   136
 6.7941   149
 6.8041   162
 6.8141   146
 6.8241   151
 6.8341   149
 6.8441   143
 6.8541   177
 6.8641   201
 6.8741   166
 6.8841   207
 6.8941   236
 6.9041   286
 6.9141   248
 6.9241   352
 6.9341   396
 6.9441   518
 6.9541   556
 6.9641   699
 6.9741   856
 6.9841   927
 6.9941  1086
 7.0041  1206
 7.0141  1355
 7.0241  1377
 7.0341  1503
 7.0441  1586
 7.0541  1574
 7.0641  1502
 7.0741  1499
 7.0841  1464
 7.0941  1319
 7.1041  1162
 7.1141  1058
 7.1241   873
 7.1341   823
 7.1441   684
 7.1541   587
 7.1641   505
 7.1741   393
 7.1841   351
 7.1941   307
 7.2041   264
 7.2141   250
 7.2241   233
 7.2341   232
 7.2441   235
 7.2541   207
 7.2641   197
 7.2741   237
 7.2841   228
 7.2941   273
 7.3041   229
 7.3141   225
 7.3241   230
 7.3341   268
 7.3441   302
 7.3541   284
 7.3641   314
 7.3741   363
 7.3841   313
 7.3941   337
 7.4041   324
 7.4141   309
 7.4241   331
 7.4341   323
 7.4441   320
 7.4541   326
 7.4641   331
 7.4741   289
 7.4841   293
 7.4941   282
 7.5041   250
 7.5141   243
 7.5241   229
 7.5341   253
 7.5441   225
 7.5541   240
 7.5641   220
 7.5741   211
 7.5841   199
 7.5941   235
 7.6041   208
 7.6141   242
 7.6241   214
 7.6341   220
 7.6441   235
 7.6541   246
 7.6641   241
 7.6741   231
 7.6841   226
 7.6941   257
 7.7041   250
 7.7141   234
 7.7241   241
 7.7341   257
 7.7441   253
 7.7541   285
 7.7641   274
 7.7741   300
 7.7841   249
 7.7941   253
 7.8041   258
 7.8141   293
 7.8241   295
 7.8341   298
 7.8441   310
 7.8541   331
 7.8641   291
 7.8741   318
 7.8841   356
 7.8941   347
 7.9041   382
 7.9141   406
 7.9241   445
 7.9341   410
 7.9441   451
 7.9541   473
 7.9641   541
 7.9741   508
 7.9841   591
 7.9941   616
 8.0041   701
 8.0141   736
 8.0241   807
 8.0341   834
 8.0441   870
 8.0541   947
 8.0641   970
 8.0741  1040
 8.0841  1048
 8.0941  1127
 8.1041  1202
 8.1141  1244
 8.1241  1320
 8.1341  1425
 8.1441  1420
 8.1541  1439
 8.1641  1449
 8.1741  1489
 8.1841  1446
 8.1941  1504
 8.2041  1493
 8.2141  1529
 8.2241  1502
 8.2341  1534
 8.2441  1481
 8.2541  1572
 8.2641  1656
 8.2741  1739
 8.2841  1885
 8.2941  2025
 8.3041  2221
 8.3141  2452
 8.3241  2596
 8.3341  2792
 8.3441  2997
 8.3541  3202
 8.3641  3409
 8.3741  3474
 8.3841  3588
 8.3941  3501
 8.4041  3462
 8.4141  3436
 8.4241  3213
 8.4341  3030
 8.4441  2751
 8.4541  2520
 8.4641  2195
 8.4741  1917
 8.4841  1724
 8.4941  1429
 8.5041  1192
 8.5141  1041
 8.5241   873
 8.5341   766
 8.5441   630
 8.5541   534
 8.5641   492
 8.5741   432
 8.5841   404
 8.5941   384
 8.6041   355
 8.6141   367
 8.6241   368
 8.6341   377
 8.6441   353
 8.6541   385
 8.6641   375
 8.6741   369
 8.6841   381
 8.6941   453
 8.7041   420
 8.7141   376
 8.7241   381
 8.7341   414
 8.7441   391
 8.7541   401
 8.7641   402
 8.7741   399
 8.7841   396
 8.7941   406
 8.8041   385
 8.8141   368
 8.8241   389
 8.8341   380
 8.8441   381
 8.8541   346
 8.8641   376
 8.8741   346
 8.8841   361
 8.8941   368
 8.9041   372
 8.9141   337
 8.9241   354
 8.9341   337
 8.9441   351
 8.9541   351
 8.9641   371
 8.9741   391
 8.9841   370
 8.9941   374
 9.0041   389
 9.0141   380
 9.0241   430
 9.0341   407
 9.0441   404
 9.0541   430
 9.0641   423
 9.0741   435
 9.0841   462
 9.0941   476
 9.1041   491
 9.1141   536
 9.1241   530
 9.1341   599
 9.1441   601
 9.1541   617
 9.1641   687
 9.1741   682
 9.1841   735
 9.1941   765
 9.2041   809
 9.2141   809
 9.2241   834
 9.2341   942
 9.2441  1008
 9.2541  1033
 9.2641  1053
 9.2741  1117
 9.2841  1158
 9.2941  1191
 9.3041  1242
 9.3141  1299
 9.3241  1325
 9.3341  1329
 9.3441  1339
 9.3541  1429
 9.3641  1465
 9.3741  1418
 9.3841  1443
 9.3941  1487
 9.4041  1524
 9.4141  1563
 9.4241  1566
 9.4341  1497
 9.4441  1585
 9.4541  1572
 9.4641  1600
 9.4741  1602
 9.4841  1605
 9.4941  1722
 9.5041  1673
 9.5141  1752
 9.5241  1778
 9.5341  1866
 9.5441  2011
 9.5541  2013
 9.5641  2151
 9.5741  2310
 9.5841  2415
 9.5941  2614
 9.6041  2725
 9.6141  2788
 9.6241  3009
 9.6341  3109
 9.6441  3236
 9.6541  3259
 9.6641  3335
 9.6741  3273
 9.6841  3207
 9.6941  3045
 9.7041  2971
 9.7141  2927
 9.7241  2718
 9.7341  2544
 9.7441  2363
 9.7541  2163
 9.7641  1974
 9.7741  1785
 9.7841  1695
 9.7941  1647
 9.8041  1424
 9.8141  1362
 9.8241  1285
 9.8341  1295
 9.8441  1254
 9.8541  1223
 9.8641  1252
 9.8741  1217
 9.8841  1239
 9.8941  1236
 9.9041  1282
 9.9141  1345
 9.9241  1309
 9.9341  1266
 9.9441  1379
 9.9541  1367
 9.9641  1354
 9.9741  1288
 9.9841  1255
 9.9941  1243
10.0041  1143
10.0141  1097
10.0241   996
10.0341   930
10.0441   849
10.0541   762
10.0641   683
10.0741   619
10.0841   552
10.0941   528
10.1041   453
10.1141   406
10.1241   365
10.1341   363
10.1441   338
10.1541   301
10.1641   287
10.1741   297
10.1841   273
10.1941   279
10.2041   256
10.2141   256
10.2241   236
10.2341   244
10.2441   207
10.2541   226
10.2641   214
10.2741   198
10.2841   201
10.2941   194
10.3041   187
10.3141   207
10.3241   217
10.3341   188
10.3441   190
10.3541   171
10.3641   197
10.3741   188
10.3841   205
10.3941   197
10.4041   177
10.4141   185
10.4241   196
10.4341   187
10.4441   192
10.4541   190
10.4641   183
10.4741   192
10.4841   194
10.4941   199
10.5041   199
10.5141   216
10.5241   226
10.5341   198
10.5441   212
10.5541   183
10.5641   196
10.5741   217
10.5841   231
10.5941   223
10.6041   217
10.6141   217
10.6241   209
10.6341   230
10.6441   233
10.6541   237
10.6641   243
10.6741   242
10.6841   250
10.6941   231
10.7041   262
10.7141   283
10.7241   269
10.7341   281
10.7441   288
10.7541   275
10.7641   311
10.7741   319
10.7841   312
10.7941   319
10.8041   301
10.8141   309
10.8241   346
10.8341   345
10.8441   336
10.8541   359
10.8641   333
10.8741   324
10.8841   356
10.8941   351
10.9041   350
10.9141   345
10.9241   357
10.9341   370
10.9441   351
10.9541   344
10.9641   348
10.9741   354
10.9841   368
10.9941   326
11.0041   328
11.0141   341
11.0241   334
11.0341   327
11.0441   325
11.0541   289
11.0641   288
11.0741   297
11.0841   306
11.0941   315
11.1041   301
11.1141   313
11.1241   328
11.1341   320
11.1441   361
11.1541   365
11.1641   375
11.1741   391
11.1841   396
11.1941   476
11.2041   462
11.2141   467
11.2241   514
11.2341   545
11.2441   553
11.2541   530
11.2641   517
11.2741   544
11.2841   549
11.2941   551
11.3041   542
11.3141   547
11.3241   517
11.3341   512
11.3441   505
11.3541   456
11.3641   446
11.3741   384
11.3841   366
11.3941   376
11.4041   371
11.4141   323
11.4241   307
11.4341   303
11.4441   272
11.4541   256
11.4641   267
11.4741   263
11.4841   262
11.4941   276
11.5041   282
11.5141   266
11.5241   260
11.5341   276
11.5441   267
11.5541   245
11.5641   240
11.5741   259
11.5841   265
11.5941   252
11.6041   266
11.6141   261
11.6241   264
11.6341   272
11.6441   258
11.6541   250
11.6641   255
11.6741   249
11.6841   261
11.6941   252
11.7041   236
11.7141   230
11.7241   222
11.7341   222
11.7441   209
11.7541   190
11.7641   184
11.7741   193
11.7841   200
11.7941   178
11.8041   181
11.8141   185
11.8241   160
11.8341   175
11.8441   176
11.8541   177
11.8641   189
11.8741   189
11.8841   196
11.8941   196
11.9041   193
11.9141   186
11.9241   183
11.9341   188
11.9441   192
11.9541   191
11.9641   186
11.9741   190
11.9841   184
11.9941   168
12.0041   169
12.0141   191
12.0241   199
12.0341   187
12.0441   186
12.0541   182
12.0641   178
12.0741   185
12.0841   191
12.0941   190
12.1041   178
12.1141   181
12.1241   178
12.1341   188
12.1441   191
12.1541   187
12.1641   177
12.1741   171
12.1841   190
12.1941   189
12.2041   184
12.2141   176
12.2241   171
12.2341   169
12.2441   175
12.2541   169
12.2641   168
12.2741   170
12.2841   185
12.2941   192
12.3041   185
12.3141   189
12.3241   189
12.3341   191
12.3441   185
12.3541   185
12.3641   180
12.3741   188
12.3841   194
12.3941   197
12.4041   195
12.4141   189
12.4241   191
12.4341   186
12.4441   189
12.4541   197
12.4641   190
12.4741   172
12.4841   188
12.4941   183
12.5041   185
12.5141   193
12.5241   195
12.5341   197
12.5441   196
12.5541   211
12.5641   211
12.5741   204
12.5841   202
12.5941   216
12.6041   209
12.6141   198
12.6241   213
12.6341   210
12.6441   205
12.6541   214
12.6641   221
12.6741   213
12.6841   198
12.6941   203
12.7041   220
12.7141   226
12.7241   225
12.7341   221
12.7441   229
12.7541   218
12.7641   210
12.7741   205
12.7841   205
12.7941   217
12.8041   213
12.8141   211
12.8241   205
12.8341   214
12.8441   214
12.8541   218
12.8641   221
12.8741   212
12.8841   219
12.8941   211
12.9041   211
12.9141   230
12.9241   221
12.9341   225
12.9441   216
12.9541   223
12.9641   237
12.9741   251
12.9841   231
12.9941   219
13.0041   243
13.0141   229
13.0241   217
13.0341   227
13.0441   227
13.0541   219
13.0641   220
13.0741   226
13.0841   214
13.0941   215
13.1041   218
13.1141   216
13.1241   233
13.1341   228
13.1441   215
13.1541   238
13.1641   231
13.1741   224
13.1841   234
13.1941   241
13.2041   237
13.2141   228
13.2241   227
13.2341   226
13.2441   235
13.2541   238
13.2641   243
13.2741   248
13.2841   262
13.2941   273
13.3041   253
13.3141   256
13.3241   271
13.3341   281
13.3441   273
13.3541   267
13.3641   252
13.3741   247
13.3841   258
13.3941   269
13.4041   272
13.4141   271
13.4241   271
13.4341   276
13.4441   285
13.4541   275
13.4641   251
13.4741   250
13.4841   262
13.4941   248
13.5041   243
13.5141   246
13.5241   237
13.5341   265
13.5441   278
13.5541   262
13.5641   276
13.5741   270
13.5841   264
13.5941   287
13.6041   285
13.6141   276
13.6241   288
13.6341   279
13.6441   254
13.6541   249
13.6641   241
13.6741   246
13.6841   249
13.6941   247
13.7041   270
13.7141   270
13.7241   250
13.7341   245
13.7441   247
13.7541   270
13.7641   285
13.7741   267
13.7841   254
13.7941   272
13.8041   267
13.8141   268
13.8241   291
13.8341   292
13.8441   282
13.8541   281
13.8641   297
13.8741   303
13.8841   299
13.8941   302
13.9041   300
13.9141   291
13.9241   299
13.9341   316
13.9441   321
13.9541   307
13.9641   305
13.9741   302
13.9841   301
13.9941   309
14.0041   301
14.0141   301
14.0241   319
14.0341   326
14.0441   328
14.0541   330
14.0641   326
14.0741   332
14.0841   323
14.0941   318
14.1041   342
14.1141   342
14.1241   327
14.1341   331
14.1441   343
14.1541   350
14.1641   346
14.1741   332
14.1841   332
14.1941   340
14.2041   344
14.2141   350
14.2241   334
14.2341   331
14.2441   340
14.2541   336
14.2641   325
14.2741   312
14.2841   317
14.2941   324
14.3041   320
14.3141   327
14.3241   328
14.3341   318
14.3441   295
14.3541   297
14.3641   306
14.3741   301
14.3841   317
14.3941   319
14.4041   311
14.4141   325
14.4241   329
14.4341   321
14.4441   308
14.4541   303
14.4641   315
14.4741   301
14.4841   305
14.4941   328
14.5041   325
14.5141   314
14.5241   307
14.5341   309
14.5441   320
14.5541   314
14.5641   321
14.5741   334
14.5841   336
14.5941   333
14.6041   310
14.6141   317
14.6241   344
14.6341   338
14.6441   334
14.6541   318
14.6641   313
14.6741   326
14.6841   317
14.6941   303
14.7041   309
14.7141   320
14.7241   331
14.7341   332
14.7441   347
14.7541   352
14.7641   347
14.7741   343
14.7841   360
14.7941   348
14.8041   331
14.8141   335
14.8241   343
14.8341   349
14.8441   373
14.8541   369
14.8641   332
14.8741   341
14.8841   357
14.8941   373
14.9041   368
14.9141   335
14.9241   338
14.9341   352
14.9441   353
14.9541   357
14.9641   369
14.9741   360
14.9841   363
14.9941   356
15.0041   375
15.0141   398
15.0241   378
15.0341   359
15.0441   360
15.0541   343
15.0641   356
15.0741   343
15.0841   330
15.0941   339
15.1041   341
15.1141   370
15.1241   365
15.1341   349
15.1441   365
15.1541   358
15.1641   340
15.1741   353
15.1841   352
15.1941   357
15.2041   352
15.2141   383
15.2241   386
15.2341   341
15.2441   340
15.2541   354
15.2641   347
15.2741   344
15.2841   363
15.2941   383
15.3041   370
15.3141   384
15.3241   385
15.3341   389
15.3441   392
15.3541   400
15.3641   386
15.3741   374
15.3841   357
15.3941   390
15.4041   402
15.4141   372
15.4241   370
15.4341   409
15.4441   415
15.4541   398
15.4641   390
15.4741   392
15.4841   387
15.4941   407
15.5041   411
15.5141   413
15.5241   411
15.5341   412
15.5441   385
15.5541   404
15.5641   452
15.5741   443
15.5841   444
15.5941   441
15.6041   442
15.6141   493
15.6241   509
15.6341   510
15.6441   525
15.6541   532
15.6641   544
15.6741   591
15.6841   612
15.6941   593
15.7041   597
15.7141   607
15.7241   599
15.7341   622
15.7441   620
15.7541   625
15.7641   608
15.7741   638
15.7841   628
15.7941   643
15.8041   631
15.8141   588
15.8241   601
15.8341   591
15.8441   553
15.8541   536
15.8641   515
15.8741   512
15.8841   484
15.8941   485
15.9041   491
15.9141   478
15.9241   482
15.9341   481
15.9441   445
15.9541   469
15.9641   438
15.9741   433
15.9841   452
15.9941   444
16.0041   453
16.0141   440
16.0241   462
16.0341   461
16.0441   439
16.0541   460
16.0641   430
16.0741   422
16.0841   452
16.0941   446
16.1041   467
16.1141   473
16.1241   470
16.1341   442
16.1441   411
16.1541   448
16.1641   448
16.1741   424
16.1841   450
16.1941   455
16.2041   452
16.2141   477
16.2241   459
16.2341   431
16.2441   432
16.2541   433
16.2641   452
16.2741   459
16.2841   463
16.2941   475
16.3041   459
16.3141   436
16.3241   479
16.3341   462
16.3441   427
16.3541   441
16.3641   466
16.3741   468
16.3841   477
16.3941   466
16.4041   472
16.4141   487
16.4241   485
16.4341   488
16.4441   482
16.4541   494
16.4641   484
16.4741   474
16.4841   490
16.4941   495
16.5041   467
16.5141   442
16.5241   454
16.5341   476
16.5441   463
16.5541   491
16.5641   471
16.5741   490
16.5841   475
16.5941   460
16.6041   473
16.6141   478
16.6241   478
16.6341   487
16.6441   466
16.6541   470
16.6641   477
16.6741   468
16.6841   485
16.6941   491
16.7041   476
16.7141   497
16.7241   495
16.7341   495
16.7441   495
16.7541   496
16.7641   499
16.7741   469
16.7841   484
16.7941   493
16.8041   496
16.8141   472
16.8241   482
16.8341   511
16.8441   516
16.8541   503
16.8641   506
16.8741   527
16.8841   542
16.8941   514
16.9041   509
16.9141   536
16.9241   500
16.9341   497
16.9441   518
16.9541   523
16.9641   525
16.9741   526
16.9841   509
16.9941   520
17.0041   515
17.0141   490
17.0241   499
17.0341   497
17.0441   502
17.0541   500
17.0641   523
17.0741   497
17.0841   490
17.0941   518
17.1041   526
17.1141   502
17.1241   508
17.1341   532
17.1441   528
17.1541   529
17.1641   535
17.1741   550
17.1841   532
17.1941   546
17.2041   533
17.2141   507
17.2241   513
17.2341   536
17.2441   523
17.2541   530
17.2641   522
17.2741   530
17.2841   542
17.2941   546
17.3041   572
17.3141   554
17.3241   524
17.3341   517
17.3441   538
17.3541   551
17.3641   512
17.3741   526
17.3841   540
17.3941   580
17.4041   570
17.4141   559
17.4241   567
17.4341   545
17.4441   538
17.4541   547
17.4641   539
17.4741   555
17.4841   558
17.4941   556
17.5041   548
17.5141   534
17.5241   533
17.5341   584
17.5441   562
17.5541   589
17.5641   572
17.5741   565
17.5841   586
17.5941   575
17.6041   600
17.6141   579
17.6241   600
17.6341   615
17.6441   619
17.6541   596
17.6641   617
17.6741   637
17.6841   613
17.6941   591
17.7041   593
17.7141   594
17.7241   605
17.7341   579
17.7441   600
17.7541   610
17.7641   602
17.7741   606
17.7841   592
17.7941   588
17.8041   593
17.8141   579
17.8241   561
17.8341   583
17.8441   593
17.8541   565
17.8641   576
17.8741   559
17.8841   560
17.8941   608
17.9041   583
17.9141   607
17.9241   585
17.9341   572
17.9441   592
17.9541   585
17.9641   596
17.9741   595
17.9841   579
17.9941   562
18.0041   587
18.0141   595
18.0241   566
18.0341   550
18.0441   607
18.0541   578
18.0641   565
18.0741   547
18.0841   535
18.0941   557
18.1041   607
18.1141   619
18.1241   590
18.1341   618
18.1441   601
18.1541   606
18.1641   604
18.1741   601
18.1841   608
18.1941   614
18.2041   590
18.2141   627
18.2241   624
18.2341   553
18.2441   575
18.2541   591
18.2641   604
18.2741   610
18.2841   575
18.2941   585
18.3041   616
18.3141   634
18.3241   595
18.3341   593
18.3441   604
18.3541   608
18.3641   633
18.3741   569
18.3841   580
18.3941   608
18.4041   582
18.4141   601
18.4241   622
18.4341   607
18.4441   622
18.4541   604
18.4641   586
18.4741   599
18.4841   591
18.4941   605
18.5041   626
18.5141   600
18.5241   586
18.5341   628
18.5441   604
18.5541   585
18.5641   584
18.5741   621
18.5841   586
18.5941   615
18.6041   647
18.6141   623
18.6241   627
18.6341   639
18.6441   634
18.6541   641
18.6641   584
18.6741   609
18.6841   601
18.6941   636
18.7041   612
18.7141   611
18.7241   628
18.7341   602
18.7441   630
18.7541   601
18.7641   596
18.7741   619
18.7841   635
18.7941   649
18.8041   612
18.8141   597
18.8241   567
18.8341   589
18.8441   681
18.8541   626
18.8641   598
18.8741   612
18.8841   637
18.8941   631
18.9041   639
18.9141   631
18.9241   612
18.9341   633
18.9441   647
18.9541   617
18.9641   615
18.9741   629
18.9841   652
18.9941   646
19.0041   654
19.0141   622
19.0241   585
19.0341   634
19.0441   603
19.0541   614
19.0641   603
19.0741   616
19.0841   636
19.0941   618
19.1041   645
19.1141   637
19.1241   647
19.1341   637
19.1441   625
19.1541   650
19.1641   604
19.1741   651
19.1841   645
19.1941   655
19.2041   593
19.2141   622
19.2241   619
19.2341   649
19.2441   642
19.2541   631
19.2641   629
19.2741   658
19.2841   638
19.2941   679
19.3041   651
19.3141   626
19.3241   646
19.3341   607
19.3441   657
19.3541   641
19.3641   650
19.3741   676
19.3841   647
19.3941   644
19.4041   614
19.4141   630
19.4241   638
19.4341   638
19.4441   637
19.4541   641
19.4641   693
19.4741   666
19.4841   624
19.4941   617
19.5041   654
19.5141   673
19.5241   624
19.5341   637
19.5441   650
19.5541   638
19.5641   665
19.5741   689
19.5841   655
19.5941   646
19.6041   660
19.6141   685
19.6241   686
19.6341   649
19.6441   615
19.6541   661
19.6641   655
19.6741   632
19.6841   680
19.6941   659
19.7041   637
19.7141   648
19.7241   642
19.7341   599
19.7441   637
19.7541   646
19.7641   694
19.7741   666
19.7841   660
19.7941   680
19.8041   642
19.8141   632
19.8241   602
19.8341   640
19.8441   635
19.8541   640
19.8641   639
19.8741   667
19.8841   657
19.8941   640
19.9041   689
19.9141   672
19.9241   608
19.9341   664
19.9441   624
19.9541   648
19.9641   659
19.9741   682
19.9841   607
19.9941   663
20.0041   661
20.0141   642
20.0241   641
20.0341   653
20.0441   633
20.0541   653
20.0641   692
20.0741   685
20.0841   690
20.0941   652
20.1041   653
20.1141   638
20.1241   611
20.1341   640
20.1441   624
20.1541   643
20.1641   665
20.1741   636
20.1841   635
20.1941   697
20.2041   624
20.2141   639
20.2241   659
20.2341   675
20.2441   639
20.2541   646
20.2641   696
20.2741   647
20.2841   653
20.2941   626
20.3041   655
20.3141   685
20.3241   642
20.3341   685
20.3441   642
20.3541   650
20.3641   677
20.3741   696
20.3841   621
20.3941   665
20.4041   666
20.4141   666
20.4241   656
20.4341   647
20.4441   677
20.4541   660
20.4641   630
20.4741   681
20.4841   660
20.4941   662
20.5041   683
20.5141   690
20.5241   671
20.5341   677
20.5441   672
20.5541   676
20.5641   673
20.5741   671
20.5841   647
20.5941   671
20.6041   633
20.6141   650
20.6241   695
20.6341   684
20.6441   675
20.6541   673
20.6641   692
20.6741   692
20.6841   691
20.6941   715
20.7041   662
20.7141   672
20.7241   667
20.7341   643
20.7441   682
20.7541   682
20.7641   666
20.7741   744
20.7841   675
20.7941   638
20.8041   674
20.8141   705
20.8241   677
20.8341   657
20.8441   656
20.8541   709
20.8641   735
20.8741   758
20.8841   700
20.8941   738
20.9041   754
20.9141   814
20.9241   743
20.9341   756
20.9441   799
20.9541   811
20.9641   791
20.9741   797
20.9841   834
20.9941   839
21.0041   800
21.0141   837
21.0241   825
21.0341   913
21.0441   886
21.0541   906
21.0641   955
21.0741   908
21.0841   915
21.0941   920
21.1041   975
21.1141   972
21.1241   957
21.1341   981
21.1441   975
21.1541   986
21.1641   937
21.1741   951
21.1841   917
21.1941   941
21.2041   845
21.2141   890
21.2241   892
21.2341   858
21.2441   881
21.2541   874
21.2641   909
21.2741   879
21.2841   808
21.2941   782
21.3041   779
21.3141   783
21.3241   765
21.3341   759
21.3441   754
21.3541   726
21.3641   710
21.3741   711
21.3841   727
21.3941   679
21.4041   685
21.4141   666
21.4241   697
21.4341   703
21.4441   693
21.4541   705
21.4641   652
21.4741   651
21.4841   665
21.4941   672
21.5041   665
21.5141   666
21.5241   633
21.5341   665
21.5441   698
21.5541   665
21.5641   673
21.5741   642
21.5841   694
21.5941   673
21.6041   695
21.6141   692
21.6241   651
21.6341   675
21.6441   631
21.6541   685
21.6641   652
21.6741   641
21.6841   696
21.6941   673
21.7041   674
21.7141   651
21.7241   682
21.7341   678
21.7441   654
21.7541   686
21.7641   609
21.7741   639
21.7841   602
21.7941   695
21.8041   690
21.8141   668
21.8241   652
21.8341   632
21.8441   709
21.8541   657
21.8641   716
21.8741   645
21.8841   676
21.8941   639
21.9041   696
21.9141   678
21.9241   648
21.9341   664
21.9441   669
21.9541   678
21.9641   710
21.9741   641
21.9841   682
21.9941   614
22.0041   728
22.0141   636
22.0241   664
22.0341   659
22.0441   671
22.0541   666
22.0641   665
22.0741   654
22.0841   642
22.0941   633
22.1041   662
22.1141   615
22.1241   705
22.1341   667
22.1441   668
22.1541   664
22.1641   696
22.1741   643
22.1841   632
22.1941   581
22.2041   650
22.2141   638
22.2241   633
22.2341   633
22.2441   654
22.2541   689
22.2641   661
22.2741   609
22.2841   656
22.2941   639
22.3041   650
22.3141   628
22.3241   660
22.3341   639
22.3441   661
22.3541   644
22.3641   626
22.3741   642
22.3841   643
22.3941   633
22.4041   645
22.4141   644
22.4241   653
22.4341   661
22.4441   595
22.4541   623
22.4641   616
22.4741   670
22.4841   672
22.4941   658
22.5041   625
22.5141   603
22.5241   665
22.5341   621
22.5441   647
22.5541   616
22.5641   631
22.5741   594
22.5841   619
22.5941   618
22.6041   633
22.6141   590
22.6241   636
22.6341   632
22.6441   621
22.6541   663
22.6641   675
22.6741   619
22.6841   634
22.6941   623
22.7041   648
22.7141   631
22.7241   628
22.7341   603
22.7441   642
22.7541   633
22.7641   686
22.7741   625
22.7841   623
22.7941   601
22.8041   622
22.8141   619
22.8241   601
22.8341   605
22.8441   631
22.8541   670
22.8641   619
22.8741   646
22.8841   611
22.8941   717
22.9041   657
22.9141   645
22.9241   649
22.9341   616
22.9441   603
22.9541   621
22.9641   630
22.9741   638
22.9841   640
22.9941   643
23.0041   650
23.0141   595
23.0241   631
23.0341   634
23.0441   633
23.0541   657
23.0641   617
23.0741   654
23.0841   626
23.0941   630
23.1041   664
23.1141   618
23.1241   655
23.1341   608
23.1441   617
23.1541   644
23.1641   602
23.1741   622
23.1841   653
23.1941   600
23.2041   678
23.2141   605
23.2241   576
23.2341   600
23.2441   621
23.2541   657
23.2641   608
23.2741   598
23.2841   617
23.2941   641
23.3041   617
23.3141   587
23.3241   643
23.3341   601
23.3441   620
23.3541   645
23.3641   563
23.3741   590
23.3841   649
23.3941   627
23.4041   574
23.4141   625
23.4241   630
23.4341   618
23.4441   589
23.4541   620
23.4641   654
23.4741   623
23.4841   584
23.4941   579
23.5041   618
23.5141   641
23.5241   593
23.5341   619
23.5441   625
23.5541   618
23.5641   664
23.5741   627
23.5841   625
23.5941   600
23.6041   649
23.6141   648
23.6241   627
23.6341   650
23.6441   615
23.6541   568
23.6641   689
23.6741   618
23.6841   648
23.6941   666
23.7041   652
23.7141   658
23.7241   677
23.7341   591
23.7441   618
23.7541   655
23.7641   629
23.7741   646
23.7841   699
23.7941   616
23.8041   620
23.8141   662
23.8241   672
23.8341   652
23.8441   622
23.8541   623
23.8641   577
23.8741   636
23.8841   622
23.8941   697
23.9041   641
23.9141   633
23.9241   618
23.9341   638
23.9441   596
23.9541   611
23.9641   568
23.9741   614
23.9841   612
23.9941   644
24.0041   627
24.0141   609
24.0241   552
24.0341   598
24.0441   600
24.0541   548
24.0641   586
24.0741   568
24.0841   573
24.0941   563
24.1041   560
24.1141   598
24.1241   561
24.1341   595
24.1441   565
24.1541   624
24.1641   590
24.1741   608
24.1841   615
24.1941   582
24.2041   591
24.2141   577
24.2241   619
24.2341   571
24.2441   648
24.2541   529
24.2641   548
24.2741   582
24.2841   556
24.2941   585
24.3041   594
24.3141   602
24.3241   569
24.3341   595
24.3441   572
24.3541   567
24.3641   584
24.3741   567
24.3841   590
24.3941   592
24.4041   575
24.4141   553
24.4241   608
24.4341   564
24.4441   577
24.4541   535
24.4641   588
24.4741   550
24.4841   602
24.4941   576
24.5041   562
24.5141   583
24.5241   571
24.5341   603
24.5441   578
24.5541   549
24.5641   556
24.5741   586
24.5841   573
24.5941   520
24.6041   588
24.6141   588
24.6241   570
24.6341   568
24.6441   594
24.6541   610
24.6641   573
24.6741   558
24.6841   532
24.6941   552
24.7041   552
24.7141   582
24.7241   547
24.7341   528
24.7441   561
24.7541   611
24.7641   581
24.7741   565
24.7841   541
24.7941   520
24.8041   518
24.8141   537
24.8241   554
24.8341   516
24.8441   579
24.8541   530
24.8641   568
24.8741   533
24.8841   529
24.8941   544
24.9041   515
24.9141   537
24.9241   553
24.9341   595
24.9441   548
24.9541   535
24.9641   581
24.9741   528
24.9841   500
24.9941   525
25.0041   542
25.0141   559
25.0241   562
25.0341   586
25.0441   541
25.0541   497
25.0641   534
25.0741   557
25.0841   541
25.0941   570
25.1041   557
25.1141   540
25.1241   561
25.1341   544
25.1441   551
25.1541   563
25.1641   501
25.1741   551
25.1841   554
25.1941   550
25.2041   561
25.2141   589
25.2241   527
25.2341   545
25.2441   584
25.2541   578
25.2641   549
25.2741   522
25.2841   507
25.2941   612
25.3041   609
25.3141   565
25.3241   560
25.3341   563
25.3441   542
25.3541   521
25.3641   547
25.3741   543
25.3841   536
25.3941   548
25.4041   521
25.4141   543
25.4241   552
25.4341   549
25.4441   544
25.4541   558
25.4641   540
25.4741   540
25.4841   525
25.4941   530
25.5041   550
25.5141   537
25.5241   498
25.5341   502
25.5441   527
25.5541   503
25.5641   549
25.5741   513
25.5841   540
25.5941   535
25.6041   484
25.6141   502
25.6241   518
25.6341   541
25.6441   546
25.6541   520
25.6641   508
25.6741   513
25.6841   539
25.6941   482
25.7041   504
25.7141   538
25.7241   549
25.7341   481
25.7441   534
25.7541   529
25.7641   517
25.7741   466
25.7841   487
25.7941   492
25.8041   523
25.8141   454
25.8241   517
25.8341   547
25.8441   506
25.8541   510
25.8641   473
25.8741   521
25.8841   495
25.8941   536
25.9041   534
25.9141   522
25.9241   537
25.9341   527
25.9441   483
25.9541   482
25.9641   493
25.9741   494
25.9841   494
25.9941   481
26.0041   527
26.0141   504
26.0241   487
26.0341   468
26.0441   481
26.0541   520
26.0641   529
26.0741   493
26.0841   472
26.0941   480
26.1041   488
26.1141   496
26.1241   494
26.1341   513
26.1441   525
26.1541   495
26.1641   536
26.1741   490
26.1841   462
26.1941   477
26.2041   509
26.2141   528
26.2241   487
26.2341   511
26.2441   466
26.2541   493
26.2641   450
26.2741   477
26.2841   477
26.2941   466
26.3041   503
26.3141   494
26.3241   493
26.3341   455
26.3441   478
26.3541   479
26.3641   461
26.3741   485
26.3841   485
26.3941   493
26.4041   521
26.4141   463
26.4241   453
26.4341   481
26.4441   500
26.4541   496
26.4641   487
26.4741   503
26.4841   440
26.4941   447
26.5041   458
26.5141   444
26.5241   440
26.5341   438
26.5441   494
26.5541   444
26.5641   497
26.5741   496
26.5841   461
26.5941   476
26.6041   482
26.6141   443
26.6241   446
26.6341   444
26.6441   463
26.6541   483
26.6641   483
26.6741   462
26.6841   436
26.6941   464
26.7041   449
26.7141   451
26.7241   445
26.7341   448
26.7441   440
26.7541   475
26.7641   457
26.7741   462
26.7841   441
26.7941   474
26.8041   450
26.8141   462
26.8241   494
26.8341   448
26.8441   457
26.8541   464
26.8641   430
26.8741   418
26.8841   446
26.8941   444
26.9041   442
26.9141   458
26.9241   451
26.9341   446
26.9441   442
26.9541   429
26.9641   441
26.9741   439
26.9841   474
26.9941   437
27.0041   473
27.0141   412
27.0241   460
27.0341   452
27.0441   428
27.0541   445
27.0641   463
27.0741   481
27.0841   439
27.0941   441
27.1041   418
27.1141   446
27.1241   434
27.1341   440
27.1441   415
27.1541   426
27.1641   462
27.1741   435
27.1841   436
27.1941   444
27.2041   447
27.2141   414
27.2241   401
27.2341   445
27.2441   430
27.2541   439
27.2641   418
27.2741   448
27.2841   425
27.2941   426
27.3041   412
27.3141   433
27.3241   420
27.3341   474
27.3441   438
27.3541   466
27.3641   420
27.3741   450
27.3841   422
27.3941   449
27.4041   429
27.4141   438
27.4241   413
27.4341   459
27.4441   425
27.4541   398
27.4641   445
27.4741   442
27.4841   410
27.4941   448
27.5041   433
27.5141   442
27.5241   402
27.5341   429
27.5441   428
27.5541   444
27.5641   395
27.5741   445
27.5841   421
27.5941   444
27.6041   393
27.6141   409
27.6241   400
27.6341   369
27.6441   373
27.6541   460
27.6641   394
27.6741   374
27.6841   406
27.6941   424
27.7041   400
27.7141   404
27.7241   414
27.7341   377
27.7441   408
27.7541   421
27.7641   367
27.7741   394
27.7841   429
27.7941   386
27.8041   395
27.8141   420
27.8241   410
27.8341   409
27.8441   388
27.8541   404
27.8641   437
27.8741   396
27.8841   378
27.8941   389
27.9041   339
27.9141   384
27.9241   378
27.9341   383
27.9441   388
27.9541   399
27.9641   386
27.9741   417
27.9841   399
27.9941   401
28.0041   415
28.0141   354
28.0241   355
28.0341   375
28.0441   401
28.0541   360
28.0641   392
28.0741   423
28.0841   433
28.0941   377
28.1041   375
28.1141   372
28.1241   390
28.1341   395
28.1441   382
28.1541   386
28.1641   393
28.1741   406
28.1841   371
28.1941   362
28.2041   401
28.2141   381
28.2241   406
28.2341   391
28.2441   334
28.2541   383
28.2641   382
28.2741   388
28.2841   402
28.2941   356
28.3041   347
28.3141   380
28.3241   385
28.3341   384
28.3441   393
28.3541   393
28.3641   379
28.3741   364
28.3841   347
28.3941   380
28.4041   342
28.4141   366
28.4241   392
28.4341   421
28.4441   354
28.4541   374
28.4641   385
28.4741   367
28.4841   350
28.4941   367
28.5041   348
28.5141   352
28.5241   377
28.5341   378
28.5441   351
28.5541   395
28.5641   345
28.5741   353
28.5841   380
28.5941   341
28.6041   372
28.6141   369
28.6241   333
28.6341   374
28.6441   365
28.6541   390
28.6641   345
28.6741   367
28.6841   335
28.6941   383
28.7041   385
28.7141   359
28.7241   329
28.7341   336
28.7441   355
28.7541   342
28.7641   379
28.7741   353
28.7841   374
28.7941   346
28.8041   338
28.8141   347
28.8241   342
28.8341   342
28.8441   330
28.8541   328
28.8641   352
28.8741   327
28.8841   379
28.8941   344
28.9041   366
28.9141   358
28.9241   349
28.9341   369
28.9441   353
28.9541   334
28.9641   350
28.9741   337
28.9841   358
28.9941   345
29.0041   365
29.0141   353
29.0241   345
29.0341   345
29.0441   341
29.0541   346
29.0641   343
29.0741   323
29.0841   331
29.0941   339
29.1041   337
29.1141   345
29.1241   362
29.1341   354
29.1441   335
29.1541   337
29.1641   361
29.1741   324
29.1841   349
29.1941   347
29.2041   333
29.2141   341
29.2241   362
29.2341   337
29.2441   329
29.2541   346
29.2641   352
29.2741   338
29.2841   315
29.2941   335
29.3041   351
29.3141   315
29.3241   348
29.3341   347
29.3441   321
29.3541   354
29.3641   335
29.3741   318
29.3841   321
29.3941   289
29.4041   353
29.4141   304
29.4241   328
29.4341   307
29.4441   312
29.4541   323
29.4641   309
29.4741   331
29.4841   315
29.4941   329
29.5041   334
29.5141   338
29.5241   325
29.5341   318
29.5441   289
29.5541   339
29.5641   318
29.5741   374
29.5841   283
29.5941   323
29.6041   320
29.6141   308
29.6241   349
29.6341   349
29.6441   316
29.6541   293
29.6641   306
29.6741   325
29.6841   278
29.6941   340
29.7041   313
29.7141   317
29.7241   341
29.7341   327
29.7441   282
29.7541   298
29.7641   281
29.7741   329
29.7841   294
29.7941   332
29.8041   321
29.8141   302
29.8241   310
29.8341   327
29.8441   320
29.8541   329
29.8641   307
29.8741   311
29.8841   318
29.8941   306
29.9041   288
29.9141   284
29.9241   309
29.9341   271
29.9441   309
29.9541   283
29.9641   299
29.9741   307
29.9841   288
29.9941   339
30.0041   301
30.0141   298
30.0241   287
30.0341   315
30.0441   301
30.0541   324
30.0641   310
30.0741   327
30.0841   268
30.0941   275
30.1041   299
30.1141   282
30.1241   294
30.1341   293
30.1441   333
30.1541   296
30.1641   267
30.1741   265
30.1841   282
30.1941   290
30.2041   298
30.2141   286
30.2241   296
30.2341   316
30.2441   288
30.2541   295
30.2641   308
30.2741   270
30.2841   324
30.2941   298
30.3041   298
30.3141   279
30.3241   274
30.3341   251
30.3441   244
30.3541   276
30.3641   289
30.3741   275
30.3841   294
30.3941   270
30.4041   278
30.4141   266
30.4241   303
30.4341   272
30.4441   253
30.4541   310
30.4641   266
30.4741   285
30.4841   255
30.4941   247
30.5041   288
30.5141   288
30.5241   290
30.5341   282
30.5441   253
30.5541   291
30.5641   270
30.5741   255
30.5841   279
30.5941   271
30.6041   300
30.6141   253
30.6241   271
30.6341   268
30.6441   279
30.6541   255
30.6641   269
30.6741   259
30.6841   291
30.6941   253
30.7041   285
30.7141   261
30.7241   283
30.7341   244
30.7441   304
30.7541   252
30.7641   279
30.7741   268
30.7841   252
30.7941   239
30.8041   256
30.8141   260
30.8241   266
30.8341   288
30.8441   270
30.8541   280
30.8641   265
30.8741   240
30.8841   253
30.8941   256
30.9041   263
30.9141   254
30.9241   264
30.9341   261
30.9441   246
30.9541   302
30.9641   242
30.9741   268
30.9841   263
30.9941   275
31.0041   256
31.0141   244
31.0241   234
31.0341   244
31.0441   238
31.0541   260
31.0641   246
31.0741   257
31.0841   270
31.0941   264
31.1041   243
31.1141   262
31.1241   247
31.1341   242
31.1441   239
31.1541   247
31.1641   294
31.1741   254
31.1841   245
31.1941   238
31.2041   255
31.2141   244
31.2241   250
31.2341   275
31.2441   238
31.2541   228
31.2641   286
31.2741   236
31.2841   231
31.2941   243
31.3041   258
31.3141   254
31.3241   219
31.3341   248
31.3441   210
31.3541   266
31.3641   261
31.3741   234
31.3841   256
31.3941   236
31.4041   220
31.4141   226
31.4241   216
31.4341   239
31.4441   226
31.4541   261
31.4641   220
31.4741   214
31.4841   241
31.4941   237
31.5041   244
31.5141   241
31.5241   279
31.5341   237
31.5441   234
31.5541   263
31.5641   211
31.5741   223
31.5841   230
31.5941   208
31.6041   206
31.6141   231
31.6241   240
31.6341   228
31.6441   240
31.6541   249
31.6641   237
31.6741   228
31.6841   232
31.6941   247
31.7041   239
31.7141   201
31.7241   228
31.7341   225
31.7441   242
31.7541   213
31.7641   225
31.7741   216
31.7841   221
31.7941   229
31.8041   225
31.8141   252
31.8241   210
31.8341   216
31.8441   222
31.8541   203
31.8641   208
31.8741   229
31.8841   233
31.8941   234
31.9041   229
31.9141   225
31.9241   221
31.9341   225
31.9441   225
31.9541   230
31.9641   237
31.9741   228
31.9841   234
31.9941   217
32.0041   219
32.0141   220
32.0241   214
32.0341   226
32.0441   209
32.0541   194
32.0641   190
32.0741   215
32.0841   229
32.0941   192
32.1041   224
32.1141   218
32.1241   245
32.1341   236
32.1441   212
32.1541   222
32.1641   218
32.1741   219
32.1841   227
32.1941   215
32.2041   215
32.2141   207
32.2241   208
32.2341   225
32.2441   200
32.2541   203
32.2641   199
32.2741   199
32.2841   215
32.2941   203
32.3041   202
32.3141   195
32.3241   199
32.3341   211
32.3441   198
32.3541   199
32.3641   193
32.3741   191
32.3841   218
32.3941   243
32.4041   196
32.4141   233
32.4241   188
32.4341   186
32.4441   216
32.4541   189
32.4641   180
32.4741   193
32.4841   201
32.4941   201
32.5041   205
32.5141   217
32.5241   213
32.5341   191
32.5441   206
32.5541   178
32.5641   192
32.5741   192
32.5841   190
32.5941   204
32.6041   206
32.6141   184
32.6241   208
32.6341   192
32.6441   203
32.6541   213
32.6641   203
32.6741   178
32.6841   184
32.6941   193
32.7041   182
32.7141   196
32.7241   212
32.7341   198
32.7441   210
32.7541   191
32.7641   190
32.7741   207
32.7841   192
32.7941   191
32.8041   179
32.8141   183
32.8241   177
32.8341   182
32.8441   190
32.8541   184
32.8641   157
32.8741   199
32.8841   196
32.8941   167
32.9041   195
32.9141   189
32.9241   230
32.9341   199
32.9441   200
32.9541   211
32.9641   177
32.9741   164
32.9841   198
32.9941   196
33.0041   206
33.0141   203
33.0241   182
33.0341   187
33.0441   176
33.0541   174
33.0641   183
33.0741   183
33.0841   165
33.0941   171
33.1041   174
33.1141   180
33.1241   149
33.1341   180
33.1441   181
33.1541   190
33.1641   170
33.1741   192
33.1841   170
33.1941   187
33.2041   167
33.2141   169
33.2241   189
33.2341   186
33.2441   197
33.2541   198
33.2641   175
33.2741   195
33.2841   199
33.2941   151
33.3041   204
33.3141   163
33.3241   184
33.3341   180
33.3441   168
33.3541   161
33.3641   197
33.3741   168
33.3841   165
33.3941   185
33.4041   165
33.4141   160
33.4241   196
33.4341   174
33.4441   171
33.4541   182
33.4641   160
33.4741   183
33.4841   174
33.4941   179
33.5041   172
33.5141   174
33.5241   168
33.5341   170
33.5441   174
33.5541   171
33.5641   184
33.5741   169
33.5841   181
33.5941   154
33.6041   179
33.6141   158
33.6241   177
33.6341   167
33.6441   155
33.6541   162
33.6641   168
33.6741   156
33.6841   162
33.6941   188
33.7041   170
33.7141   188
33.7241   152
33.7341   188
33.7441   170
33.7541   173
33.7641   162
33.7741   153
33.7841   148
33.7941   168
33.8041   177
33.8141   152
33.8241   150
33.8341   161
33.8441   171
33.8541   142
33.8641   166
33.8741   140
33.8841   170
33.8941   159
33.9041   135
33.9141   148
33.9241   147
33.9341   151
33.9441   165
33.9541   143
33.9641   148
33.9741   159
33.9841   138
33.9941   168
34.0041   156
34.0141   157
34.0241   156
34.0341   155
34.0441   138
34.0541   147
34.0641   145
34.0741   168
34.0841   144
34.0941   136
34.1041   138
34.1141   135
34.1241   165
34.1341   145
34.1441   158
34.1541   147
34.1641   138
34.1741   146
34.1841   135
34.1941   147
34.2041   162
34.2141   151
34.2241   147
34.2341   162
34.2441   147
34.2541   134
34.2641   138
34.2741   155
34.2841   150
34.2941   145
34.3041   147
34.3141   150
34.3241   163
34.3341   157
34.3441   135
34.3541   127
34.3641   150
34.3741   149
34.3841   146
34.3941   129
34.4041   132
34.4141   141
34.4241   145
34.4341   133
34.4441   156
34.4541   125
34.4641   151
34.4741   133
34.4841   143
34.4941   127
34.5041   151
34.5141   137
34.5241   129
34.5341   131
34.5441   150
34.5541   131
34.5641   141
34.5741   127
34.5841   130
34.5941   127
34.6041   133
34.6141   134
34.6241   133
34.6341   162
34.6441   128
34.6541   137
34.6641   137
34.6741   126
34.6841   119
34.6941   119
34.7041   126
34.7141   125
34.7241   139
34.7341   120
34.7441   120
34.7541   126
34.7641   144
34.7741   122
34.7841   112
34.7941   131
34.8041   130
34.8141   137
34.8241   114
34.8341   122
34.8441   121
34.8541   115
34.8641   124
34.8741   115
34.8841   124
34.8941   108
34.9041   137
34.9141   144
34.9241   139
34.9341   120
34.9441   128
34.9541   109
34.9641   132
34.9741   118
34.9841   134
34.9941   129
35.0041   122
35.0141   129
35.0241   132
35.0341   131
35.0441   114
35.0541   122
35.0641   132
35.0741   130
35.0841   118
35.0941   118
35.1041   126
35.1141   144
35.1241   131
35.1341   123
35.1441   110
35.1541   103
35.1641   111
35.1741   122
35.1841   116
35.1941   122
35.2041   128
35.2141   110
35.2241   122
35.2341   107
35.2441   123
35.2541   109
35.2641   109
35.2741   133
35.2841   112
35.2941   116
35.3041   130
35.3141   105
35.3241   114
35.3341   116
35.3441   119
35.3541   120
35.3641   121
35.3741   104
35.3841   125
35.3941   119
35.4041   133
35.4141   101
35.4241   111
35.4341   109
35.4441   109
35.4541   117
35.4641   126
35.4741   113
35.4841   110
35.4941   120
35.5041   104
35.5141   114
35.5241   112
35.5341   115
35.5441   108
35.5541   109
35.5641   118
35.5741   111
35.5841   137
35.5941   115
35.6041   115
35.6141   118
35.6241   112
35.6341   114
35.6441   101
35.6541   120
35.6641   101
35.6741   109
35.6841    85
35.6941    92
35.7041   117
35.7141   109
35.7241    98
35.7341    99
35.7441    96
35.7541   110
35.7641    99
35.7741   111
35.7841   121
35.7941   109
35.8041   106
35.8141    97
35.8241    99
35.8341    92
35.8441    98
35.8541   101
35.8641   110
35.8741    99
35.8841   119
35.8941    96
35.9041   120
35.9141   100
35.9241   114
35.9341   120
35.9441   103
35.9541    96
35.9641   103
35.9741   101
35.9841   100
35.9941   103
36.0041   115
36.0141    98
36.0241   104
36.0341    87
36.0441   101
36.0541   102
36.0641   101
36.0741   108
36.0841   122
36.0941    98
36.1041    98
36.1141   105
36.1241    89
36.1341    90
36.1441    87
36.1541    86
36.1641   104
36.1741   121
36.1841    93
36.1941   100
36.2041    95
36.2141   111
36.2241    93
36.2341   100
36.2441    99
36.2541   109
36.2641    94
36.2741    93
36.2841    96
36.2941   104
36.3041    84
36.3141    91
36.3241    83
36.3341   104
36.3441    78
36.3541    96
36.3641    85
36.3741   107
36.3841    83
36.3941    81
36.4041   102
36.4141    94
36.4241    85
36.4341    89
36.4441   119
36.4541    90
36.4641    96
36.4741    81
36.4841   108
36.4941    98
36.5041    93
36.5141    84
36.5241    72
36.5341    83
36.5441   101
36.5541    98
36.5641    63
36.5741    99
36.5841    95
36.5941    87
36.6041    79
36.6141    95
36.6241   100
36.6341    88
36.6441    81
36.6541    75
36.6641    80
36.6741    86
36.6841    87
36.6941    83
36.7041    84
36.7141    82
36.7241    80
36.7341   102
36.7441    81
36.7541    87
36.7641    98
36.7741    86
36.7841    73
36.7941    73
36.8041    95
36.8141    86
36.8241    79
36.8341    72
36.8441    83
36.8541    73
36.8641    87
36.8741    83
36.8841    90
36.8941    83
36.9041    86
36.9141    70
36.9241    82
36.9341    78
36.9441    82
36.9541    67
36.9641    72
36.9741    84
36.9841    94
36.9941    90
37.0041    83
37.0141    77
37.0241    66
37.0341    82
37.0441    72
37.0541    74
37.0641    80
37.0741    85
37.0841    76
37.0941    86
37.1041    81
37.1141    90
37.1241    72
37.1341    73
37.1441    69
37.1541    82
37.1641    78
37.1741    75
37.1841    68
37.1941    73
37.2041    65
37.2141    76
37.2241    92
37.2341    91
37.2441    69
37.2541    70
37.2641    74
37.2741    75
37.2841    71
37.2941    88
37.3041    85
37.3141    79
37.3241    70
37.3341    68
37.3441    76
37.3541    86
37.3641    65
37.3741    75
37.3841    84
37.3941    69
37.4041    71
37.4141    77
37.4241    65
37.4341    68
37.4441    76
37.4541    70
37.4641    61
37.4741    78
37.4841    70
37.4941    65
37.5041    69
37.5141    75
37.5241    57
37.5341    84
37.5441    72
37.5541    60
37.5641    80
37.5741    80
37.5841    71
37.5941    58
37.6041    84
37.6141    76
37.6241    79
37.6341    70
37.6441    75
37.6541    68
37.6641    60
37.6741    74
37.6841    58
37.6941    70
37.7041    62
37.7141    73
37.7241    73
37.7341    70
37.7441    71
37.7541    65
37.7641    75
37.7741    68
37.7841    77
37.7941    54
37.8041    56
37.8141    58
37.8241    66
37.8341    87
37.8441    59
37.8541    64
37.8641    67
37.8741    59
37.8841    68
37.8941    68
37.9041    66
37.9141    52
37.9241    54
37.9341    82
37.9441    55
37.9541    71
37.9641    62
37.9741    58
37.9841    60
37.9941    66
38.0041    70
38.0141    65
38.0241    54
38.0341    48
38.0441    65
38.0541    48
38.0641    70
38.0741    50
38.0841    64
38.0941    68
38.1041    51
38.1141    63
38.1241    64
38.1341    54
38.1441    70
38.1541    70
38.1641    59
38.1741    58
38.1841    67
38.1941    58
38.2041    65
38.2141    67
38.2241    62
38.2341    64
38.2441    54
38.2541    53
38.2641    66
38.2741    62
38.2841    66
38.2941    66
38.3041    54
38.3141    67
38.3241    50
38.3341    53
38.3441    55
38.3541    65
38.3641    60
38.3741    58
38.3841    67
38.3941    54
38.4041    52
38.4141    59
38.4241    58
38.4341    70
38.4441    51
38.4541    59
38.4641    59
38.4741    62
38.4841    55
38.4941    62
38.5041    46
38.5141    55
38.5241    55
38.5341    48
38.5441    34
38.5541    61
38.5641    68
38.5741    53
38.5841    61
38.5941    51
38.6041    48
38.6141    65
38.6241    51
38.6341    62
38.6441    45
38.6541    44
38.6641    60
38.6741    55
38.6841    53
38.6941    47
38.7041    52
38.7141    41
38.7241    64
38.7341    53
38.7441    46
38.7541    48
38.7641    61
38.7741    55
38.7841    49
38.7941    56
38.8041    46
38.8141    51
38.8241    54
38.8341    56
38.8441    40
38.8541    53
38.8641    46
38.8741    54
38.8841    49
38.8941    48
38.9041    54
38.9141    42
38.9241    50
38.9341    56
38.9441    48
38.9541    44
38.9641    42
38.9741    50
38.9841    62
38.9941    43
39.0041    46
39.0141    42
39.0241    45
39.0341    46
39.0441    42
39.0541    39
39.0641    48
39.0741    49
39.0841    47
39.0941    41
39.1041    44
39.1141    53
39.1241    39
39.1341    46
39.1441    38
39.1541    45
39.1641    37
39.1741    46
39.1841    42
39.1941    40
39.2041    42
39.2141    40
39.2241    33
39.2341    39
39.2441    38
39.2541    37
39.2641    50
39.2741    39
39.2841    37
39.2941    44
39.3041    45
39.3141    50
39.3241    42
39.3341    34
39.3441    43
39.3541    47
39.3641    37
39.3741    34
39.3841    40
39.3941    50
39.4041    47
39.4141    35
39.4241    38
39.4341    34
39.4441    39
39.4541    43
39.4641    30
39.4741    39
39.4841    48
39.4941    38
39.5041    43
39.5141    37
39.5241    44
39.5341    36
39.5441    30
39.5541    40
39.5641    35
39.5741    34
39.5841    33
39.5941    39
39.6041    29
39.6141    32
39.6241    26
39.6341    37
39.6441    50
39.6541    38
39.6641    34
39.6741    44
39.6841    35
39.6941    26
39.7041    30
39.7141    35
39.7241    34
39.7341    39
39.7441    42
39.7541    33
39.7641    36
39.7741    42
39.7841    30
39.7941    32
39.8041    36
39.8141    34
39.8241    30
39.8341    32
39.8441    35
39.8541    47
39.8641    36
39.8741    31
39.8841    32
39.8941    36
39.9041    25
39.9141    41
39.9241    31
39.9341    35
39.9441    25
39.9541    37
39.9641    32
39.9741    35
39.9841    34
39.9941    28
