Bruker Nano GmbH Berlin, Germany
Esprit 1.9

Date: 4/21/2021 1:39:45 PM
Real time: 22211
Life time: 20751
Pulse density: 96646


Detector type: XFlash 430
Window type: Custom type
Detector thickness: 0.45
Si dead layer:0.029

Calibration, lin.: 10
Calibration, abs.: -955.9
Mn FWHM: 137.05
Fano factor: 0.121
Channels: 4095

Energy Counts
-0.9559     0
-0.9459     0
-0.9359     0
-0.9259     0
-0.9159     0
-0.9059     0
-0.8959     0
-0.8859     0
-0.8759     0
-0.8659     0
-0.8559     0
-0.8459     0
-0.8359     0
-0.8259     0
-0.8159     0
-0.8059     0
-0.7959     0
-0.7859     0
-0.7759     0
-0.7659     0
-0.7559     0
-0.7459     0
-0.7359     0
-0.7259     0
-0.7159     0
-0.7059     0
-0.6959     0
-0.6859     0
-0.6759     0
-0.6659     0
-0.6559     0
-0.6459     0
-0.6359     0
-0.6259     0
-0.6159     0
-0.6059     0
-0.5959     0
-0.5859     0
-0.5759     0
-0.5659     0
-0.5559     0
-0.5459     0
-0.5359     0
-0.5259     0
-0.5159     0
-0.5059     0
-0.4959     0
-0.4859     0
-0.4759     0
-0.4659     0
-0.4559     0
-0.4459     0
-0.4359     0
-0.4259     0
-0.4159     0
-0.4059     0
-0.3959     0
-0.3859     0
-0.3759     0
-0.3659     0
-0.3559     0
-0.3459     0
-0.3359     0
-0.3259     0
-0.3159     0
-0.3059     0
-0.2959     0
-0.2859     0
-0.2759     0
-0.2659     0
-0.2559     0
-0.2459     0
-0.2359     0
-0.2259     0
-0.2159     0
-0.2059     0
-0.1959     0
-0.1859     0
-0.1759     0
-0.1659     0
-0.1559     0
-0.1459     0
-0.1359     2
-0.1259     2
-0.1159     4
-0.1059    10
-0.0959    51
-0.0859   267
-0.0759   827
-0.0659  2397
-0.0559  6010
-0.0459 13014
-0.0359 24506
-0.0259 39618
-0.0159 54386
-0.0059 63717
 0.0041 63808
 0.0141 54886
 0.0241 40779
 0.0341 25723
 0.0441 14049
 0.0541  6509
 0.0641  2613
 0.0741   912
 0.0841   288
 0.0941    73
 0.1041    24
 0.1141    13
 0.1241    11
 0.1341     8
 0.1441    14
 0.1541     5
 0.1641     5
 0.1741     4
 0.1841   203
 0.1941   392
 0.2041   377
 0.2141   333
 0.2241   349
 0.2341   380
 0.2441   347
 0.2541   347
 0.2641   350
 0.2741   366
 0.2841   366
 0.2941   338
 0.3041   343
 0.3141   362
 0.3241   322
 0.3341   330
 0.3441   314
 0.3541   328
 0.3641   322
 0.3741   331
 0.3841   349
 0.3941   331
 0.4041   323
 0.4141   300
 0.4241   282
 0.4341   279
 0.4441   314
 0.4541   319
 0.4641   310
 0.4741   305
 0.4841   310
 0.4941   323
 0.5041   314
 0.5141   319
 0.5241   285
 0.5341   291
 0.5441   278
 0.5541   291
 0.5641   293
 0.5741   272
 0.5841   280
 0.5941   278
 0.6041   263
 0.6141   257
 0.6241   268
 0.6341   283
 0.6441   283
 0.6541   274
 0.6641   286
 0.6741   283
 0.6841   273
 0.6941   278
 0.7041   270
 0.7141   269
 0.7241   267
 0.7341   262
 0.7441   260
 0.7541   245
 0.7641   241
 0.7741   258
 0.7841   254
 0.7941   252
 0.8041   253
 0.8141   254
 0.8241   289
 0.8341   269
 0.8441   267
 0.8541   250
 0.8641   233
 0.8741   244
 0.8841   258
 0.8941   238
 0.9041   238
 0.9141   249
 0.9241   255
 0.9341   228
 0.9441   213
 0.9541   234
 0.9641   261
 0.9741   224
 0.9841   238
 0.9941   242
 1.0041   245
 1.0141   235
 1.0241   228
 1.0341   219
 1.0441   217
 1.0541   227
 1.0641   221
 1.0741   223
 1.0841   236
 1.0941   233
 1.1041   234
 1.1141   212
 1.1241   218
 1.1341   236
 1.1441   218
 1.1541   211
 1.1641   207
 1.1741   210
 1.1841   211
 1.1941   219
 1.2041   230
 1.2141   230
 1.2241   226
 1.2341   211
 1.2441   201
 1.2541   196
 1.2641   221
 1.2741   211
 1.2841   220
 1.2941   187
 1.3041   166
 1.3141   209
 1.3241   218
 1.3341   204
 1.3441   213
 1.3541   198
 1.3641   218
 1.3741   213
 1.3841   218
 1.3941   218
 1.4041   215
 1.4141   212
 1.4241   222
 1.4341   204
 1.4441   225
 1.4541   217
 1.4641   196
 1.4741   226
 1.4841   216
 1.4941   199
 1.5041   216
 1.5141   221
 1.5241   203
 1.5341   207
 1.5441   186
 1.5541   208
 1.5641   184
 1.5741   190
 1.5841   200
 1.5941   198
 1.6041   198
 1.6141   192
 1.6241   184
 1.6341   203
 1.6441   213
 1.6541   269
 1.6641   295
 1.6741   302
 1.6841   405
 1.6941   557
 1.7041   638
 1.7141   715
 1.7241   769
 1.7341   846
 1.7441   857
 1.7541   793
 1.7641   751
 1.7741   606
 1.7841   515
 1.7941   403
 1.8041   349
 1.8141   295
 1.8241   257
 1.8341   246
 1.8441   245
 1.8541   238
 1.8641   225
 1.8741   214
 1.8841   216
 1.8941   200
 1.9041   218
 1.9141   200
 1.9241   199
 1.9341   205
 1.9441   198
 1.9541   212
 1.9641   226
 1.9741   234
 1.9841   247
 1.9941   229
 2.0041   242
 2.0141   245
 2.0241   259
 2.0341   240
 2.0441   235
 2.0541   232
 2.0641   217
 2.0741   192
 2.0841   211
 2.0941   193
 2.1041   175
 2.1141   172
 2.1241   196
 2.1341   196
 2.1441   174
 2.1541   186
 2.1641   165
 2.1741   183
 2.1841   198
 2.1941   183
 2.2041   157
 2.2141   174
 2.2241   178
 2.2341   183
 2.2441   172
 2.2541   149
 2.2641   183
 2.2741   199
 2.2841   168
 2.2941   165
 2.3041   169
 2.3141   176
 2.3241   186
 2.3341   176
 2.3441   163
 2.3541   170
 2.3641   198
 2.3741   164
 2.3841   149
 2.3941   178
 2.4041   176
 2.4141   155
 2.4241   158
 2.4341   158
 2.4441   148
 2.4541   159
 2.4641   159
 2.4741   165
 2.4841   159
 2.4941   152
 2.5041   143
 2.5141   185
 2.5241   182
 2.5341   155
 2.5441   157
 2.5541   136
 2.5641   156
 2.5741   163
 2.5841   160
 2.5941   144
 2.6041   155
 2.6141   156
 2.6241   170
 2.6341   141
 2.6441   148
 2.6541   162
 2.6641   141
 2.6741   154
 2.6841   158
 2.6941   132
 2.7041   129
 2.7141   156
 2.7241   141
 2.7341   144
 2.7441   155
 2.7541   134
 2.7641   158
 2.7741   139
 2.7841   140
 2.7941   175
 2.8041   149
 2.8141   164
 2.8241   164
 2.8341   152
 2.8441   142
 2.8541   171
 2.8641   155
 2.8741   138
 2.8841   140
 2.8941   158
 2.9041   138
 2.9141   141
 2.9241   154
 2.9341   140
 2.9441   152
 2.9541   126
 2.9641   128
 2.9741   128
 2.9841   136
 2.9941   154
 3.0041   149
 3.0141   155
 3.0241   134
 3.0341   122
 3.0441   132
 3.0541   150
 3.0641   127
 3.0741   129
 3.0841   124
 3.0941   119
 3.1041   133
 3.1141   127
 3.1241   132
 3.1341   132
 3.1441   155
 3.1541   137
 3.1641   133
 3.1741   133
 3.1841   135
 3.1941   130
 3.2041   124
 3.2141   134
 3.2241   148
 3.2341   195
 3.2441   194
 3.2541   238
 3.2641   248
 3.2741   269
 3.2841   303
 3.2941   344
 3.3041   387
 3.3141   363
 3.3241   342
 3.3341   341
 3.3441   324
 3.3541   265
 3.3641   215
 3.3741   239
 3.3841   182
 3.3941   151
 3.4041   144
 3.4141   136
 3.4241   130
 3.4341   128
 3.4441   129
 3.4541   109
 3.4641   109
 3.4741   118
 3.4841   107
 3.4941   110
 3.5041   122
 3.5141   151
 3.5241   143
 3.5341   147
 3.5441   149
 3.5541   158
 3.5641   195
 3.5741   246
 3.5841   295
 3.5941   323
 3.6041   457
 3.6141   500
 3.6241   636
 3.6341   731
 3.6441   893
 3.6541  1079
 3.6641  1148
 3.6741  1273
 3.6841  1284
 3.6941  1341
 3.7041  1276
 3.7141  1170
 3.7241  1049
 3.7341   948
 3.7441   746
 3.7541   581
 3.7641   484
 3.7741   392
 3.7841   294
 3.7941   226
 3.8041   173
 3.8141   141
 3.8241   135
 3.8341    99
 3.8441    99
 3.8541   114
 3.8641   109
 3.8741   105
 3.8841   107
 3.8941   121
 3.9041   132
 3.9141   116
 3.9241   120
 3.9341   150
 3.9441   173
 3.9541   211
 3.9641   218
 3.9741   243
 3.9841   252
 3.9941   257
 4.0041   279
 4.0141   284
 4.0241   282
 4.0341   248
 4.0441   259
 4.0541   215
 4.0641   183
 4.0741   197
 4.0841   165
 4.0941   138
 4.1041   114
 4.1141   112
 4.1241   109
 4.1341    97
 4.1441    97
 4.1541    99
 4.1641    95
 4.1741    69
 4.1841    91
 4.1941    86
 4.2041    90
 4.2141    88
 4.2241    79
 4.2341    79
 4.2441   104
 4.2541    93
 4.2641    80
 4.2741    82
 4.2841    80
 4.2941    86
 4.3041    74
 4.3141    83
 4.3241    72
 4.3341    81
 4.3441   108
 4.3541   103
 4.3641   110
 4.3741   122
 4.3841   147
 4.3941   180
 4.4041   199
 4.4141   260
 4.4241   289
 4.4341   380
 4.4441   454
 4.4541   507
 4.4641   585
 4.4741   718
 4.4841   742
 4.4941   811
 4.5041   824
 4.5141   847
 4.5241   801
 4.5341   743
 4.5441   655
 4.5541   576
 4.5641   474
 4.5741   402
 4.5841   353
 4.5941   284
 4.6041   214
 4.6141   208
 4.6241   138
 4.6341   126
 4.6441   111
 4.6541   117
 4.6641   131
 4.6741   116
 4.6841   110
 4.6941    85
 4.7041    96
 4.7141    90
 4.7241    89
 4.7341    98
 4.7441   110
 4.7541   113
 4.7641   103
 4.7741   100
 4.7841   129
 4.7941   124
 4.8041   106
 4.8141   144
 4.8241   162
 4.8341   176
 4.8441   192
 4.8541   174
 4.8641   206
 4.8741   198
 4.8841   212
 4.8941   219
 4.9041   220
 4.9141   233
 4.9241   258
 4.9341   262
 4.9441   214
 4.9541   253
 4.9641   242
 4.9741   219
 4.9841   190
 4.9941   197
 5.0041   170
 5.0141   138
 5.0241   142
 5.0341   115
 5.0441   116
 5.0541   110
 5.0641   112
 5.0741   123
 5.0841   116
 5.0941   113
 5.1041   129
 5.1141   106
 5.1241   109
 5.1341   108
 5.1441    96
 5.1541    97
 5.1641   101
 5.1741   108
 5.1841   105
 5.1941   100
 5.2041   127
 5.2141   120
 5.2241   107
 5.2341   118
 5.2441    98
 5.2541    91
 5.2641   101
 5.2741    94
 5.2841   113
 5.2941   111
 5.3041   101
 5.3141   115
 5.3241   109
 5.3341   135
 5.3441   124
 5.3541   145
 5.3641   147
 5.3741   151
 5.3841   154
 5.3941   156
 5.4041   165
 5.4141   184
 5.4241   156
 5.4341   179
 5.4441   148
 5.4541   156
 5.4641   151
 5.4741   146
 5.4841   151
 5.4941   138
 5.5041   124
 5.5141   120
 5.5241   106
 5.5341   118
 5.5441   125
 5.5541   102
 5.5641   107
 5.5741   121
 5.5841   133
 5.5941   124
 5.6041   119
 5.6141    98
 5.6241    95
 5.6341   115
 5.6441    98
 5.6541   112
 5.6641    94
 5.6741   104
 5.6841   108
 5.6941   128
 5.7041   119
 5.7141   119
 5.7241   109
 5.7341   122
 5.7441   140
 5.7541   147
 5.7641   148
 5.7741   163
 5.7841   207
 5.7941   217
 5.8041   248
 5.8141   272
 5.8241   336
 5.8341   346
 5.8441   396
 5.8541   488
 5.8641   453
 5.8741   547
 5.8841   510
 5.8941   509
 5.9041   550
 5.9141   563
 5.9241   559
 5.9341   454
 5.9441   449
 5.9541   351
 5.9641   308
 5.9741   297
 5.9841   268
 5.9941   218
 6.0041   190
 6.0141   200
 6.0241   157
 6.0341   151
 6.0441   142
 6.0541   128
 6.0641   148
 6.0741   148
 6.0841   139
 6.0941   156
 6.1041   156
 6.1141   136
 6.1241   140
 6.1341   147
 6.1441   168
 6.1541   177
 6.1641   205
 6.1741   212
 6.1841   245
 6.1941   282
 6.2041   355
 6.2141   486
 6.2241   654
 6.2341   806
 6.2441  1163
 6.2541  1612
 6.2641  2279
 6.2741  3018
 6.2841  4071
 6.2941  5426
 6.3041  7116
 6.3141  8838
 6.3241 11005
 6.3341 13348
 6.3441 15539
 6.3541 18043
 6.3641 19964
 6.3741 21419
 6.3841 22561
 6.3941 23221
 6.4041 23022
 6.4141 22666
 6.4241 21356
 6.4341 19855
 6.4441 17442
 6.4541 15119
 6.4641 12773
 6.4741 10557
 6.4841  8703
 6.4941  6568
 6.5041  4973
 6.5141  3733
 6.5241  2789
 6.5341  1981
 6.5441  1400
 6.5541   973
 6.5641   716
 6.5741   480
 6.5841   392
 6.5941   294
 6.6041   266
 6.6141   209
 6.6241   234
 6.6341   203
 6.6441   171
 6.6541   178
 6.6641   160
 6.6741   201
 6.6841   190
 6.6941   202
 6.7041   170
 6.7141   168
 6.7241   166
 6.7341   194
 6.7441   177
 6.7541   198
 6.7641   202
 6.7741   186
 6.7841   203
 6.7941   190
 6.8041   192
 6.8141   203
 6.8241   251
 6.8341   213
 6.8441   233
 6.8541   271
 6.8641   323
 6.8741   280
 6.8841   337
 6.8941   384
 6.9041   466
 6.9141   595
 6.9241   754
 6.9341   927
 6.9441  1051
 6.9541  1273
 6.9641  1568
 6.9741  1911
 6.9841  2274
 6.9941  2579
 7.0041  2743
 7.0141  3152
 7.0241  3569
 7.0341  3618
 7.0441  3697
 7.0541  3700
 7.0641  3813
 7.0741  3629
 7.0841  3498
 7.0941  3143
 7.1041  2780
 7.1141  2517
 7.1241  2086
 7.1341  1822
 7.1441  1510
 7.1541  1247
 7.1641  1032
 7.1741   799
 7.1841   676
 7.1941   516
 7.2041   431
 7.2141   363
 7.2241   326
 7.2341   288
 7.2441   254
 7.2541   229
 7.2641   250
 7.2741   265
 7.2841   240
 7.2941   238
 7.3041   238
 7.3141   239
 7.3241   247
 7.3341   264
 7.3441   270
 7.3541   298
 7.3641   311
 7.3741   300
 7.3841   294
 7.3941   320
 7.4041   346
 7.4141   350
 7.4241   350
 7.4341   341
 7.4441   340
 7.4541   342
 7.4641   347
 7.4741   334
 7.4841   312
 7.4941   305
 7.5041   337
 7.5141   269
 7.5241   278
 7.5341   260
 7.5441   235
 7.5541   213
 7.5641   198
 7.5741   227
 7.5841   230
 7.5941   204
 7.6041   229
 7.6141   212
 7.6241   211
 7.6341   229
 7.6441   219
 7.6541   202
 7.6641   220
 7.6741   232
 7.6841   223
 7.6941   227
 7.7041   238
 7.7141   218
 7.7241   236
 7.7341   241
 7.7441   243
 7.7541   242
 7.7641   254
 7.7741   268
 7.7841   295
 7.7941   295
 7.8041   262
 7.8141   282
 7.8241   286
 7.8341   296
 7.8441   285
 7.8541   286
 7.8641   293
 7.8741   313
 7.8841   352
 7.8941   328
 7.9041   360
 7.9141   380
 7.9241   398
 7.9341   402
 7.9441   423
 7.9541   457
 7.9641   525
 7.9741   526
 7.9841   587
 7.9941   609
 8.0041   648
 8.0141   709
 8.0241   795
 8.0341   783
 8.0441   864
 8.0541   897
 8.0641  1000
 8.0741  1014
 8.0841  1060
 8.0941  1154
 8.1041  1174
 8.1141  1228
 8.1241  1341
 8.1341  1365
 8.1441  1419
 8.1541  1409
 8.1641  1493
 8.1741  1453
 8.1841  1443
 8.1941  1407
 8.2041  1535
 8.2141  1501
 8.2241  1569
 8.2341  1546
 8.2441  1532
 8.2541  1602
 8.2641  1648
 8.2741  1751
 8.2841  1848
 8.2941  1973
 8.3041  2132
 8.3141  2239
 8.3241  2527
 8.3341  2589
 8.3441  2774
 8.3541  2971
 8.3641  3113
 8.3741  3172
 8.3841  3336
 8.3941  3204
 8.4041  3195
 8.4141  3070
 8.4241  2922
 8.4341  2635
 8.4441  2380
 8.4541  2164
 8.4641  1967
 8.4741  1769
 8.4841  1468
 8.4941  1256
 8.5041  1064
 8.5141   923
 8.5241   791
 8.5341   652
 8.5441   595
 8.5541   476
 8.5641   457
 8.5741   434
 8.5841   423
 8.5941   400
 8.6041   385
 8.6141   408
 8.6241   415
 8.6341   391
 8.6441   393
 8.6541   366
 8.6641   369
 8.6741   390
 8.6841   357
 8.6941   357
 8.7041   351
 8.7141   351
 8.7241   347
 8.7341   341
 8.7441   332
 8.7541   345
 8.7641   315
 8.7741   317
 8.7841   306
 8.7941   307
 8.8041   320
 8.8141   320
 8.8241   296
 8.8341   344
 8.8441   333
 8.8541   290
 8.8641   321
 8.8741   323
 8.8841   317
 8.8941   348
 8.9041   340
 8.9141   319
 8.9241   340
 8.9341   338
 8.9441   327
 8.9541   318
 8.9641   331
 8.9741   380
 8.9841   377
 8.9941   370
 9.0041   393
 9.0141   376
 9.0241   425
 9.0341   435
 9.0441   407
 9.0541   438
 9.0641   492
 9.0741   468
 9.0841   445
 9.0941   471
 9.1041   503
 9.1141   525
 9.1241   499
 9.1341   551
 9.1441   578
 9.1541   624
 9.1641   644
 9.1741   706
 9.1841   716
 9.1941   723
 9.2041   805
 9.2141   866
 9.2241   853
 9.2341   872
 9.2441   894
 9.2541   957
 9.2641   997
 9.2741  1058
 9.2841  1128
 9.2941  1158
 9.3041  1191
 9.3141  1201
 9.3241  1319
 9.3341  1318
 9.3441  1347
 9.3541  1412
 9.3641  1434
 9.3741  1455
 9.3841  1420
 9.3941  1436
 9.4041  1394
 9.4141  1469
 9.4241  1467
 9.4341  1471
 9.4441  1565
 9.4541  1560
 9.4641  1532
 9.4741  1586
 9.4841  1596
 9.4941  1660
 9.5041  1746
 9.5141  1825
 9.5241  1850
 9.5341  1901
 9.5441  1992
 9.5541  2092
 9.5641  2283
 9.5741  2419
 9.5841  2543
 9.5941  2640
 9.6041  2791
 9.6141  2925
 9.6241  3081
 9.6341  3251
 9.6441  3302
 9.6541  3319
 9.6641  3302
 9.6741  3328
 9.6841  3201
 9.6941  3146
 9.7041  3001
 9.7141  2952
 9.7241  2714
 9.7341  2573
 9.7441  2352
 9.7541  2143
 9.7641  2009
 9.7741  1892
 9.7841  1706
 9.7941  1579
 9.8041  1453
 9.8141  1405
 9.8241  1333
 9.8341  1328
 9.8441  1359
 9.8541  1352
 9.8641  1328
 9.8741  1370
 9.8841  1380
 9.8941  1389
 9.9041  1465
 9.9141  1546
 9.9241  1539
 9.9341  1621
 9.9441  1659
 9.9541  1644
 9.9641  1628
 9.9741  1603
 9.9841  1478
 9.9941  1421
10.0041  1327
10.0141  1211
10.0241  1115
10.0341  1018
10.0441   953
10.0541   829
10.0641   716
10.0741   670
10.0841   559
10.0941   508
10.1041   468
10.1141   421
10.1241   409
10.1341   362
10.1441   322
10.1541   302
10.1641   308
10.1741   299
10.1841   263
10.1941   252
10.2041   240
10.2141   256
10.2241   228
10.2341   200
10.2441   199
10.2541   191
10.2641   211
10.2741   206
10.2841   189
10.2941   184
10.3041   171
10.3141   182
10.3241   173
10.3341   175
10.3441   197
10.3541   183
10.3641   197
10.3741   190
10.3841   175
10.3941   173
10.4041   168
10.4141   181
10.4241   174
10.4341   179
10.4441   212
10.4541   196
10.4641   193
10.4741   194
10.4841   205
10.4941   191
10.5041   183
10.5141   185
10.5241   198
10.5341   200
10.5441   215
10.5541   220
10.5641   215
10.5741   211
10.5841   211
10.5941   219
10.6041   222
10.6141   237
10.6241   230
10.6341   234
10.6441   214
10.6541   215
10.6641   229
10.6741   226
10.6841   248
10.6941   236
10.7041   233
10.7141   219
10.7241   246
10.7341   253
10.7441   250
10.7541   271
10.7641   270
10.7741   267
10.7841   291
10.7941   277
10.8041   272
10.8141   295
10.8241   286
10.8341   312
10.8441   300
10.8541   321
10.8641   334
10.8741   339
10.8841   357
10.8941   352
10.9041   342
10.9141   305
10.9241   300
10.9341   336
10.9441   347
10.9541   328
10.9641   356
10.9741   334
10.9841   329
10.9941   319
11.0041   295
11.0141   297
11.0241   266
11.0341   278
11.0441   301
11.0541   289
11.0641   299
11.0741   290
11.0841   285
11.0941   279
11.1041   293
11.1141   283
11.1241   280
11.1341   289
11.1441   297
11.1541   302
11.1641   320
11.1741   325
11.1841   351
11.1941   367
11.2041   352
11.2141   388
11.2241   374
11.2341   398
11.2441   461
11.2541   442
11.2641   449
11.2741   472
11.2841   432
11.2941   433
11.3041   442
11.3141   419
11.3241   393
11.3341   393
11.3441   379
11.3541   376
11.3641   344
11.3741   314
11.3841   303
11.3941   308
11.4041   301
11.4141   283
11.4241   260
11.4341   246
11.4441   237
11.4541   239
11.4641   237
11.4741   233
11.4841   242
11.4941   249
11.5041   256
11.5141   266
11.5241   251
11.5341   241
11.5441   235
11.5541   248
11.5641   247
11.5741   239
11.5841   266
11.5941   259
11.6041   255
11.6141   265
11.6241   274
11.6341   277
11.6441   282
11.6541   275
11.6641   255
11.6741   252
11.6841   251
11.6941   254
11.7041   238
11.7141   248
11.7241   231
11.7341   214
11.7441   204
11.7541   203
11.7641   205
11.7741   176
11.7841   201
11.7941   195
11.8041   176
11.8141   195
11.8241   179
11.8341   176
11.8441   175
11.8541   171
11.8641   169
11.8741   166
11.8841   163
11.8941   164
11.9041   168
11.9141   155
11.9241   158
11.9341   167
11.9441   186
11.9541   190
11.9641   173
11.9741   180
11.9841   169
11.9941   176
12.0041   184
12.0141   181
12.0241   181
12.0341   181
12.0441   177
12.0541   171
12.0641   183
12.0741   178
12.0841   167
12.0941   173
12.1041   183
12.1141   177
12.1241   174
12.1341   184
12.1441   181
12.1541   161
12.1641   159
12.1741   175
12.1841   177
12.1941   174
12.2041   175
12.2141   171
12.2241   166
12.2341   155
12.2441   153
12.2541   163
12.2641   184
12.2741   189
12.2841   172
12.2941   158
12.3041   165
12.3141   188
12.3241   181
12.3341   183
12.3441   186
12.3541   159
12.3641   152
12.3741   186
12.3841   187
12.3941   153
12.4041   165
12.4141   175
12.4241   173
12.4341   182
12.4441   199
12.4541   187
12.4641   180
12.4741   177
12.4841   177
12.4941   193
12.5041   190
12.5141   183
12.5241   183
12.5341   178
12.5441   180
12.5541   184
12.5641   204
12.5741   206
12.5841   196
12.5941   196
12.6041   191
12.6141   182
12.6241   205
12.6341   213
12.6441   195
12.6541   201
12.6641   207
12.6741   212
12.6841   206
12.6941   209
12.7041   208
12.7141   195
12.7241   203
12.7341   213
12.7441   207
12.7541   198
12.7641   193
12.7741   192
12.7841   194
12.7941   194
12.8041   194
12.8141   197
12.8241   202
12.8341   200
12.8441   193
12.8541   195
12.8641   204
12.8741   209
12.8841   211
12.8941   212
12.9041   214
12.9141   215
12.9241   211
12.9341   208
12.9441   208
12.9541   210
12.9641   218
12.9741   224
12.9841   218
12.9941   211
13.0041   213
13.0141   220
13.0241   222
13.0341   218
13.0441   216
13.0541   216
13.0641   213
13.0741   213
13.0841   213
13.0941   208
13.1041   202
13.1141   203
13.1241   205
13.1341   206
13.1441   218
13.1541   240
13.1641   240
13.1741   224
13.1841   200
13.1941   222
13.2041   238
13.2141   236
13.2241   245
13.2341   243
13.2441   258
13.2541   270
13.2641   273
13.2741   274
13.2841   290
13.2941   296
13.3041   303
13.3141   333
13.3241   347
13.3341   338
13.3441   343
13.3541   359
13.3641   352
13.3741   351
13.3841   344
13.3941   349
13.4041   350
13.4141   346
13.4241   336
13.4341   318
13.4441   324
13.4541   319
13.4641   312
13.4741   302
13.4841   269
13.4941   258
13.5041   276
13.5141   282
13.5241   280
13.5341   274
13.5441   254
13.5541   251
13.5641   257
13.5741   254
13.5841   235
13.5941   241
13.6041   252
13.6141   250
13.6241   244
13.6341   243
13.6441   252
13.6541   263
13.6641   249
13.6741   248
13.6841   258
13.6941   251
13.7041   245
13.7141   246
13.7241   247
13.7341   239
13.7441   238
13.7541   247
13.7641   241
13.7741   238
13.7841   239
13.7941   234
13.8041   243
13.8141   245
13.8241   263
13.8341   286
13.8441   264
13.8541   259
13.8641   275
13.8741   273
13.8841   275
13.8941   272
13.9041   275
13.9141   288
13.9241   294
13.9341   310
13.9441   305
13.9541   286
13.9641   321
13.9741   355
13.9841   369
13.9941   394
14.0041   411
14.0141   420
14.0241   444
14.0341   467
14.0441   495
14.0541   516
14.0641   528
14.0741   551
14.0841   582
14.0941   635
14.1041   643
14.1141   633
14.1241   633
14.1341   659
14.1441   697
14.1541   673
14.1641   647
14.1741   639
14.1841   624
14.1941   586
14.2041   549
14.2141   541
14.2241   553
14.2341   552
14.2441   512
14.2541   467
14.2641   433
14.2741   427
14.2841   420
14.2941   406
14.3041   390
14.3141   357
14.3241   336
14.3341   333
14.3441   326
14.3541   308
14.3641   313
14.3741   318
14.3841   301
14.3941   288
14.4041   294
14.4141   295
14.4241   306
14.4341   320
14.4441   308
14.4541   313
14.4641   323
14.4741   317
14.4841   301
14.4941   287
14.5041   305
14.5141   327
14.5241   314
14.5341   295
14.5441   294
14.5541   294
14.5641   302
14.5741   294
14.5841   306
14.5941   319
14.6041   320
14.6141   321
14.6241   301
14.6341   284
14.6441   287
14.6541   315
14.6641   318
14.6741   296
14.6841   306
14.6941   320
14.7041   301
14.7141   307
14.7241   344
14.7341   334
14.7441   302
14.7541   297
14.7641   305
14.7741   316
14.7841   326
14.7941   328
14.8041   335
14.8141   327
14.8241   338
14.8341   361
14.8441   340
14.8541   343
14.8641   342
14.8741   339
14.8841   351
14.8941   352
14.9041   337
14.9141   344
14.9241   363
14.9341   351
14.9441   356
14.9541   355
14.9641   354
14.9741   382
14.9841   379
14.9941   391
15.0041   406
15.0141   377
15.0241   356
15.0341   351
15.0441   339
15.0541   352
15.0641   353
15.0741   346
15.0841   365
15.0941   385
15.1041   386
15.1141   329
15.1241   318
15.1341   321
15.1441   336
15.1541   340
15.1641   354
15.1741   367
15.1841   365
15.1941   341
15.2041   329
15.2141   343
15.2241   351
15.2341   338
15.2441   335
15.2541   350
15.2641   353
15.2741   373
15.2841   379
15.2941   361
15.3041   353
15.3141   351
15.3241   337
15.3341   367
15.3441   373
15.3541   367
15.3641   355
15.3741   327
15.3841   333
15.3941   349
15.4041   359
15.4141   386
15.4241   400
15.4341   384
15.4441   377
15.4541   378
15.4641   354
15.4741   350
15.4841   350
15.4941   365
15.5041   387
15.5141   391
15.5241   392
15.5341   409
15.5441   445
15.5541   428
15.5641   427
15.5741   449
15.5841   473
15.5941   517
15.6041   535
15.6141   526
15.6241   512
15.6341   542
15.6441   591
15.6541   629
15.6641   653
15.6741   655
15.6841   689
15.6941   694
15.7041   716
15.7141   786
15.7241   807
15.7341   809
15.7441   838
15.7541   796
15.7641   798
15.7741   794
15.7841   769
15.7941   754
15.8041   796
15.8141   770
15.8241   754
15.8341   714
15.8441   703
15.8541   690
15.8641   669
15.8741   630
15.8841   587
15.8941   579
15.9041   542
15.9141   505
15.9241   523
15.9341   522
15.9441   483
15.9541   498
15.9641   477
15.9741   437
15.9841   437
15.9941   427
16.0041   447
16.0141   468
16.0241   413
16.0341   433
16.0441   412
16.0541   417
16.0641   439
16.0741   430
16.0841   422
16.0941   412
16.1041   410
16.1141   437
16.1241   448
16.1341   442
16.1441   434
16.1541   423
16.1641   430
16.1741   423
16.1841   420
16.1941   426
16.2041   422
16.2141   418
16.2241   449
16.2341   437
16.2441   403
16.2541   393
16.2641   402
16.2741   413
16.2841   422
16.2941   436
16.3041   428
16.3141   429
16.3241   417
16.3341   428
16.3441   439
16.3541   432
16.3641   424
16.3741   446
16.3841   434
16.3941   433
16.4041   435
16.4141   439
16.4241   443
16.4341   449
16.4441   444
16.4541   435
16.4641   442
16.4741   448
16.4841   446
16.4941   440
16.5041   439
16.5141   460
16.5241   457
16.5341   454
16.5441   445
16.5541   455
16.5641   446
16.5741   465
16.5841   461
16.5941   425
16.6041   440
16.6141   461
16.6241   445
16.6341   447
16.6441   453
16.6541   463
16.6641   464
16.6741   452
16.6841   485
16.6941   485
16.7041   483
16.7141   496
16.7241   483
16.7341   463
16.7441   456
16.7541   478
16.7641   482
16.7741   468
16.7841   472
16.7941   484
16.8041   457
16.8141   464
16.8241   457
16.8341   466
16.8441   460
16.8541   428
16.8641   447
16.8741   483
16.8841   478
16.8941   460
16.9041   499
16.9141   537
16.9241   527
16.9341   467
16.9441   499
16.9541   512
16.9641   501
16.9741   499
16.9841   509
16.9941   470
17.0041   504
17.0141   501
17.0241   498
17.0341   491
17.0441   478
17.0541   459
17.0641   476
17.0741   462
17.0841   472
17.0941   466
17.1041   451
17.1141   470
17.1241   504
17.1341   489
17.1441   509
17.1541   509
17.1641   478
17.1741   478
17.1841   479
17.1941   509
17.2041   504
17.2141   527
17.2241   504
17.2341   495
17.2441   459
17.2541   482
17.2641   483
17.2741   489
17.2841   480
17.2941   492
17.3041   505
17.3141   523
17.3241   488
17.3341   503
17.3441   502
17.3541   488
17.3641   496
17.3741   495
17.3841   524
17.3941   547
17.4041   508
17.4141   482
17.4241   513
17.4341   546
17.4441   542
17.4541   539
17.4641   555
17.4741   541
17.4841   540
17.4941   533
17.5041   524
17.5141   550
17.5241   548
17.5341   528
17.5441   585
17.5541   577
17.5641   548
17.5741   582
17.5841   577
17.5941   597
17.6041   592
17.6141   577
17.6241   576
17.6341   600
17.6441   587
17.6541   611
17.6641   621
17.6741   606
17.6841   592
17.6941   594
17.7041   614
17.7141   600
17.7241   579
17.7341   631
17.7441   602
17.7541   595
17.7641   588
17.7741   575
17.7841   584
17.7941   598
17.8041   556
17.8141   544
17.8241   552
17.8341   562
17.8441   568
17.8541   554
17.8641   557
17.8741   589
17.8841   550
17.8941   560
17.9041   537
17.9141   545
17.9241   547
17.9341   544
17.9441   569
17.9541   568
17.9641   574
17.9741   573
17.9841   557
17.9941   561
18.0041   595
18.0141   566
18.0241   564
18.0341   546
18.0441   569
18.0541   581
18.0641   539
18.0741   549
18.0841   569
18.0941   562
18.1041   546
18.1141   548
18.1241   558
18.1341   567
18.1441   569
18.1541   567
18.1641   571
18.1741   549
18.1841   565
18.1941   561
18.2041   603
18.2141   552
18.2241   569
18.2341   556
18.2441   581
18.2541   548
18.2641   541
18.2741   558
18.2841   569
18.2941   562
18.3041   591
18.3141   556
18.3241   556
18.3341   580
18.3441   579
18.3541   546
18.3641   575
18.3741   566
18.3841   561
18.3941   557
18.4041   597
18.4141   566
18.4241   567
18.4341   579
18.4441   574
18.4541   575
18.4641   580
18.4741   556
18.4841   566
18.4941   587
18.5041   587
18.5141   601
18.5241   609
18.5341   622
18.5441   592
18.5541   582
18.5641   587
18.5741   565
18.5841   584
18.5941   593
18.6041   610
18.6141   569
18.6241   587
18.6341   619
18.6441   570
18.6541   588
18.6641   605
18.6741   564
18.6841   594
18.6941   598
18.7041   590
18.7141   586
18.7241   599
18.7341   599
18.7441   620
18.7541   624
18.7641   584
18.7741   597
18.7841   602
18.7941   606
18.8041   623
18.8141   614
18.8241   593
18.8341   618
18.8441   597
18.8541   552
18.8641   584
18.8741   596
18.8841   631
18.8941   582
18.9041   598
18.9141   618
18.9241   628
18.9341   622
18.9441   618
18.9541   602
18.9641   586
18.9741   579
18.9841   599
18.9941   603
19.0041   583
19.0141   624
19.0241   609
19.0341   618
19.0441   597
19.0541   544
19.0641   589
19.0741   626
19.0841   623
19.0941   589
19.1041   600
19.1141   620
19.1241   575
19.1341   582
19.1441   623
19.1541   627
19.1641   611
19.1741   645
19.1841   632
19.1941   606
19.2041   652
19.2141   645
19.2241   641
19.2341   584
19.2441   636
19.2541   626
19.2641   598
19.2741   652
19.2841   653
19.2941   641
19.3041   596
19.3141   611
19.3241   649
19.3341   629
19.3441   637
19.3541   616
19.3641   621
19.3741   633
19.3841   662
19.3941   637
19.4041   618
19.4141   600
19.4241   598
19.4341   633
19.4441   592
19.4541   593
19.4641   637
19.4741   658
19.4841   593
19.4941   626
19.5041   651
19.5141   629
19.5241   644
19.5341   675
19.5441   636
19.5541   660
19.5641   648
19.5741   605
19.5841   633
19.5941   630
19.6041   640
19.6141   648
19.6241   687
19.6341   627
19.6441   640
19.6541   642
19.6641   624
19.6741   633
19.6841   633
19.6941   639
19.7041   598
19.7141   645
19.7241   681
19.7341   641
19.7441   651
19.7541   625
19.7641   606
19.7741   662
19.7841   637
19.7941   630
19.8041   642
19.8141   656
19.8241   646
19.8341   649
19.8441   667
19.8541   663
19.8641   646
19.8741   643
19.8841   705
19.8941   706
19.9041   689
19.9141   662
19.9241   640
19.9341   606
19.9441   639
19.9541   690
19.9641   681
19.9741   705
19.9841   657
19.9941   682
20.0041   636
20.0141   686
20.0241   653
20.0341   649
20.0441   679
20.0541   678
20.0641   627
20.0741   645
20.0841   665
20.0941   653
20.1041   662
20.1141   670
20.1241   652
20.1341   672
20.1441   679
20.1541   654
20.1641   686
20.1741   629
20.1841   675
20.1941   645
20.2041   658
20.2141   648
20.2241   675
20.2341   659
20.2441   618
20.2541   674
20.2641   642
20.2741   659
20.2841   687
20.2941   650
20.3041   707
20.3141   665
20.3241   628
20.3341   636
20.3441   675
20.3541   682
20.3641   677
20.3741   680
20.3841   683
20.3941   672
20.4041   662
20.4141   657
20.4241   665
20.4341   652
20.4441   650
20.4541   646
20.4641   636
20.4741   609
20.4841   657
20.4941   636
20.5041   641
20.5141   663
20.5241   647
20.5341   670
20.5441   673
20.5541   654
20.5641   627
20.5741   657
20.5841   640
20.5941   675
20.6041   666
20.6141   676
20.6241   676
20.6341   682
20.6441   664
20.6541   706
20.6641   687
20.6741   664
20.6841   716
20.6941   643
20.7041   657
20.7141   667
20.7241   639
20.7341   628
20.7441   647
20.7541   652
20.7641   702
20.7741   703
20.7841   699
20.7941   676
20.8041   671
20.8141   678
20.8241   673
20.8341   698
20.8441   710
20.8541   728
20.8641   704
20.8741   723
20.8841   696
20.8941   770
20.9041   784
20.9141   747
20.9241   785
20.9341   832
20.9441   838
20.9541   830
20.9641   821
20.9741   853
20.9841   907
20.9941   922
21.0041   874
21.0141   916
21.0241   935
21.0341   945
21.0441   974
21.0541   993
21.0641   947
21.0741   969
21.0841  1001
21.0941   988
21.1041  1024
21.1141  1014
21.1241   974
21.1341   977
21.1441  1021
21.1541  1038
21.1641   997
21.1741   958
21.1841   969
21.1941   960
21.2041   952
21.2141  1007
21.2241   964
21.2341   957
21.2441   881
21.2541   905
21.2641   851
21.2741   846
21.2841   804
21.2941   843
21.3041   840
21.3141   793
21.3241   776
21.3341   755
21.3441   715
21.3541   733
21.3641   726
21.3741   699
21.3841   708
21.3941   706
21.4041   719
21.4141   651
21.4241   703
21.4341   701
21.4441   682
21.4541   676
21.4641   614
21.4741   666
21.4841   690
21.4941   691
21.5041   658
21.5141   612
21.5241   678
21.5341   667
21.5441   699
21.5541   673
21.5641   694
21.5741   707
21.5841   662
21.5941   708
21.6041   705
21.6141   665
21.6241   694
21.6341   647
21.6441   695
21.6541   652
21.6641   673
21.6741   719
21.6841   662
21.6941   653
21.7041   683
21.7141   622
21.7241   703
21.7341   672
21.7441   744
21.7541   679
21.7641   668
21.7741   695
21.7841   700
21.7941   683
21.8041   626
21.8141   671
21.8241   678
21.8341   660
21.8441   664
21.8541   678
21.8641   709
21.8741   692
21.8841   681
21.8941   699
21.9041   622
21.9141   656
21.9241   629
21.9341   707
21.9441   726
21.9541   672
21.9641   686
21.9741   622
21.9841   668
21.9941   663
22.0041   691
22.0141   683
22.0241   648
22.0341   689
22.0441   700
22.0541   659
22.0641   668
22.0741   682
22.0841   692
22.0941   678
22.1041   664
22.1141   663
22.1241   691
22.1341   624
22.1441   666
22.1541   657
22.1641   667
22.1741   714
22.1841   672
22.1941   643
22.2041   661
22.2141   652
22.2241   597
22.2341   681
22.2441   663
22.2541   664
22.2641   703
22.2741   694
22.2841   682
22.2941   649
22.3041   650
22.3141   645
22.3241   659
22.3341   659
22.3441   648
22.3541   620
22.3641   702
22.3741   670
22.3841   662
22.3941   697
22.4041   686
22.4141   683
22.4241   645
22.4341   683
22.4441   685
22.4541   696
22.4641   676
22.4741   678
22.4841   647
22.4941   698
22.5041   722
22.5141   673
22.5241   689
22.5341   624
22.5441   641
22.5541   658
22.5641   679
22.5741   645
22.5841   673
22.5941   616
22.6041   643
22.6141   603
22.6241   673
22.6341   657
22.6441   670
22.6541   646
22.6641   668
22.6741   670
22.6841   655
22.6941   662
22.7041   704
22.7141   656
22.7241   640
22.7341   651
22.7441   672
22.7541   672
22.7641   666
22.7741   671
22.7841   673
22.7941   669
22.8041   658
22.8141   649
22.8241   675
22.8341   720
22.8441   640
22.8541   653
22.8641   664
22.8741   664
22.8841   687
22.8941   681
22.9041   681
22.9141   631
22.9241   632
22.9341   626
22.9441   687
22.9541   647
22.9641   664
22.9741   639
22.9841   648
22.9941   626
23.0041   622
23.0141   652
23.0241   649
23.0341   653
23.0441   639
23.0541   683
23.0641   614
23.0741   675
23.0841   644
23.0941   673
23.1041   622
23.1141   661
23.1241   648
23.1341   626
23.1441   631
23.1541   646
23.1641   632
23.1741   578
23.1841   656
23.1941   627
23.2041   641
23.2141   603
23.2241   631
23.2341   672
23.2441   671
23.2541   678
23.2641   677
23.2741   653
23.2841   680
23.2941   652
23.3041   677
23.3141   632
23.3241   592
23.3341   651
23.3441   659
23.3541   622
23.3641   650
23.3741   629
23.3841   634
23.3941   636
23.4041   665
23.4141   642
23.4241   606
23.4341   659
23.4441   637
23.4541   640
23.4641   647
23.4741   641
23.4841   654
23.4941   615
23.5041   707
23.5141   660
23.5241   638
23.5341   630
23.5441   630
23.5541   674
23.5641   644
23.5741   633
23.5841   647
23.5941   628
23.6041   660
23.6141   614
23.6241   655
23.6341   702
23.6441   636
23.6541   675
23.6641   661
23.6741   667
23.6841   670
23.6941   706
23.7041   714
23.7141   677
23.7241   672
23.7341   715
23.7441   668
23.7541   693
23.7641   715
23.7741   643
23.7841   670
23.7941   665
23.8041   661
23.8141   757
23.8241   666
23.8341   674
23.8441   712
23.8541   706
23.8641   684
23.8741   703
23.8841   714
23.8941   656
23.9041   663
23.9141   705
23.9241   647
23.9341   641
23.9441   707
23.9541   660
23.9641   592
23.9741   667
23.9841   633
23.9941   620
24.0041   610
24.0141   597
24.0241   615
24.0341   617
24.0441   665
24.0541   624
24.0641   601
24.0741   621
24.0841   665
24.0941   621
24.1041   668
24.1141   642
24.1241   627
24.1341   621
24.1441   633
24.1541   591
24.1641   607
24.1741   617
24.1841   632
24.1941   634
24.2041   637
24.2141   622
24.2241   609
24.2341   633
24.2441   619
24.2541   604
24.2641   612
24.2741   630
24.2841   636
24.2941   606
24.3041   684
24.3141   592
24.3241   625
24.3341   613
24.3441   633
24.3541   615
24.3641   615
24.3741   623
24.3841   634
24.3941   636
24.4041   604
24.4141   592
24.4241   603
24.4341   610
24.4441   608
24.4541   627
24.4641   621
24.4741   636
24.4841   597
24.4941   579
24.5041   600
24.5141   583
24.5241   641
24.5341   579
24.5441   599
24.5541   615
24.5641   588
24.5741   578
24.5841   588
24.5941   587
24.6041   654
24.6141   589
24.6241   559
24.6341   651
24.6441   613
24.6541   593
24.6641   629
24.6741   582
24.6841   617
24.6941   589
24.7041   579
24.7141   600
24.7241   604
24.7341   588
24.7441   570
24.7541   636
24.7641   615
24.7741   567
24.7841   581
24.7941   597
24.8041   587
24.8141   585
24.8241   612
24.8341   624
24.8441   604
24.8541   583
24.8641   594
24.8741   584
24.8841   586
24.8941   547
24.9041   618
24.9141   576
24.9241   631
24.9341   620
24.9441   569
24.9541   572
24.9641   564
24.9741   586
24.9841   585
24.9941   589
25.0041   636
25.0141   569
25.0241   602
25.0341   595
25.0441   608
25.0541   602
25.0641   599
25.0741   622
25.0841   602
25.0941   592
25.1041   608
25.1141   563
25.1241   647
25.1341   617
25.1441   596
25.1541   572
25.1641   526
25.1741   570
25.1841   540
25.1941   641
25.2041   604
25.2141   595
25.2241   613
25.2341   635
25.2441   607
25.2541   609
25.2641   572
25.2741   596
25.2841   599
25.2941   625
25.3041   597
25.3141   606
25.3241   624
25.3341   554
25.3441   593
25.3541   596
25.3641   600
25.3741   589
25.3841   570
25.3941   564
25.4041   586
25.4141   606
25.4241   580
25.4341   597
25.4441   580
25.4541   586
25.4641   563
25.4741   592
25.4841   548
25.4941   569
25.5041   554
25.5141   554
25.5241   564
25.5341   563
25.5441   575
25.5541   554
25.5641   562
25.5741   550
25.5841   530
25.5941   565
25.6041   512
25.6141   563
25.6241   563
25.6341   559
25.6441   619
25.6541   566
25.6641   527
25.6741   553
25.6841   545
25.6941   541
25.7041   530
25.7141   553
25.7241   577
25.7341   557
25.7441   562
25.7541   545
25.7641   523
25.7741   576
25.7841   569
25.7941   562
25.8041   535
25.8141   521
25.8241   561
25.8341   541
25.8441   515
25.8541   581
25.8641   509
25.8741   523
25.8841   547
25.8941   525
25.9041   536
25.9141   517
25.9241   519
25.9341   559
25.9441   568
25.9541   580
25.9641   550
25.9741   529
25.9841   491
25.9941   524
26.0041   527
26.0141   551
26.0241   573
26.0341   539
26.0441   528
26.0541   573
26.0641   530
26.0741   540
26.0841   538
26.0941   549
26.1041   539
26.1141   495
26.1241   512
26.1341   504
26.1441   549
26.1541   536
26.1641   541
26.1741   506
26.1841   573
26.1941   558
26.2041   525
26.2141   529
26.2241   486
26.2341   518
26.2441   547
26.2541   540
26.2641   551
26.2741   520
26.2841   514
26.2941   538
26.3041   520
26.3141   524
26.3241   597
26.3341   521
26.3441   539
26.3541   562
26.3641   493
26.3741   514
26.3841   572
26.3941   531
26.4041   538
26.4141   515
26.4241   523
26.4341   506
26.4441   511
26.4541   554
26.4641   493
26.4741   490
26.4841   502
26.4941   556
26.5041   517
26.5141   531
26.5241   497
26.5341   474
26.5441   500
26.5541   530
26.5641   531
26.5741   506
26.5841   534
26.5941   514
26.6041   519
26.6141   500
26.6241   552
26.6341   529
26.6441   491
26.6541   520
26.6641   521
26.6741   527
26.6841   513
26.6941   478
26.7041   504
26.7141   502
26.7241   526
26.7341   531
26.7441   503
26.7541   506
26.7641   508
26.7741   469
26.7841   519
26.7941   501
26.8041   483
26.8141   498
26.8241   459
26.8341   484
26.8441   489
26.8541   531
26.8641   499
26.8741   503
26.8841   442
26.8941   460
26.9041   515
26.9141   504
26.9241   526
26.9341   512
26.9441   471
26.9541   503
26.9641   496
26.9741   483
26.9841   504
26.9941   469
27.0041   487
27.0141   499
27.0241   473
27.0341   508
27.0441   469
27.0541   473
27.0641   475
27.0741   479
27.0841   467
27.0941   503
27.1041   534
27.1141   509
27.1241   487
27.1341   475
27.1441   528
27.1541   512
27.1641   489
27.1741   458
27.1841   512
27.1941   447
27.2041   479
27.2141   471
27.2241   493
27.2341   453
27.2441   452
27.2541   504
27.2641   514
27.2741   470
27.2841   487
27.2941   454
27.3041   508
27.3141   506
27.3241   471
27.3341   481
27.3441   457
27.3541   472
27.3641   498
27.3741   509
27.3841   476
27.3941   549
27.4041   478
27.4141   477
27.4241   457
27.4341   454
27.4441   513
27.4541   489
27.4641   504
27.4741   478
27.4841   463
27.4941   475
27.5041   476
27.5141   447
27.5241   478
27.5341   480
27.5441   495
27.5541   475
27.5641   462
27.5741   443
27.5841   459
27.5941   443
27.6041   483
27.6141   444
27.6241   479
27.6341   446
27.6441   450
27.6541   476
27.6641   469
27.6741   468
27.6841   426
27.6941   450
27.7041   453
27.7141   440
27.7241   451
27.7341   477
27.7441   474
27.7541   462
27.7641   441
27.7741   456
27.7841   511
27.7941   490
27.8041   451
27.8141   428
27.8241   433
27.8341   451
27.8441   432
27.8541   437
27.8641   414
27.8741   417
27.8841   445
27.8941   443
27.9041   412
27.9141   450
27.9241   429
27.9341   448
27.9441   421
27.9541   443
27.9641   461
27.9741   420
27.9841   453
27.9941   465
28.0041   441
28.0141   453
28.0241   460
28.0341   429
28.0441   449
28.0541   408
28.0641   379
28.0741   423
28.0841   435
28.0941   406
28.1041   413
28.1141   449
28.1241   421
28.1341   470
28.1441   423
28.1541   450
28.1641   443
28.1741   432
28.1841   424
28.1941   428
28.2041   444
28.2141   434
28.2241   388
28.2341   434
28.2441   423
28.2541   435
28.2641   449
28.2741   456
28.2841   395
28.2941   405
28.3041   380
28.3141   402
28.3241   396
28.3341   396
28.3441   418
28.3541   401
28.3641   435
28.3741   417
28.3841   410
28.3941   430
28.4041   387
28.4141   424
28.4241   451
28.4341   414
28.4441   422
28.4541   455
28.4641   416
28.4741   381
28.4841   425
28.4941   391
28.5041   405
28.5141   401
28.5241   396
28.5341   416
28.5441   405
28.5541   405
28.5641   414
28.5741   411
28.5841   420
28.5941   367
28.6041   434
28.6141   410
28.6241   416
28.6341   416
28.6441   420
28.6541   404
28.6641   406
28.6741   405
28.6841   394
28.6941   396
28.7041   394
28.7141   401
28.7241   396
28.7341   394
28.7441   396
28.7541   397
28.7641   431
28.7741   426
28.7841   393
28.7941   384
28.8041   386
28.8141   378
28.8241   404
28.8341   389
28.8441   402
28.8541   421
28.8641   425
28.8741   383
28.8841   378
28.8941   342
28.9041   375
28.9141   408
28.9241   398
28.9341   402
28.9441   355
28.9541   380
28.9641   377
28.9741   396
28.9841   393
28.9941   383
29.0041   380
29.0141   394
29.0241   363
29.0341   398
29.0441   377
29.0541   369
29.0641   408
29.0741   353
29.0841   366
29.0941   367
29.1041   346
29.1141   399
29.1241   394
29.1341   380
29.1441   345
29.1541   418
29.1641   366
29.1741   398
29.1841   384
29.1941   401
29.2041   389
29.2141   418
29.2241   417
29.2341   340
29.2441   387
29.2541   350
29.2641   385
29.2741   369
29.2841   382
29.2941   357
29.3041   374
29.3141   387
29.3241   383
29.3341   373
29.3441   357
29.3541   374
29.3641   369
29.3741   366
29.3841   370
29.3941   372
29.4041   368
29.4141   354
29.4241   366
29.4341   339
29.4441   354
29.4541   376
29.4641   368
29.4741   351
29.4841   379
29.4941   367
29.5041   362
29.5141   362
29.5241   387
29.5341   359
29.5441   342
29.5541   353
29.5641   350
29.5741   324
29.5841   375
29.5941   323
29.6041   350
29.6141   378
29.6241   372
29.6341   357
29.6441   350
29.6541   340
29.6641   349
29.6741   343
29.6841   351
29.6941   365
29.7041   341
29.7141   347
29.7241   365
29.7341   356
29.7441   393
29.7541   317
29.7641   367
29.7741   353
29.7841   360
29.7941   336
29.8041   319
29.8141   313
29.8241   379
29.8341   359
29.8441   343
29.8541   351
29.8641   346
29.8741   346
29.8841   326
29.8941   345
29.9041   327
29.9141   338
29.9241   325
29.9341   349
29.9441   330
29.9541   345
29.9641   327
29.9741   348
29.9841   345
29.9941   335
30.0041   322
30.0141   311
30.0241   330
30.0341   360
30.0441   349
30.0541   308
30.0641   351
30.0741   361
30.0841   325
30.0941   356
30.1041   346
30.1141   336
30.1241   321
30.1341   357
30.1441   322
30.1541   340
30.1641   333
30.1741   325
30.1841   330
30.1941   322
30.2041   311
30.2141   329
30.2241   319
30.2341   313
30.2441   313
30.2541   359
30.2641   322
30.2741   343
30.2841   332
30.2941   311
30.3041   299
30.3141   327
30.3241   325
30.3341   298
30.3441   331
30.3541   314
30.3641   318
30.3741   325
30.3841   292
30.3941   339
30.4041   327
30.4141   337
30.4241   305
30.4341   324
30.4441   327
30.4541   292
30.4641   314
30.4741   303
30.4841   313
30.4941   298
30.5041   315
30.5141   321
30.5241   336
30.5341   335
30.5441   329
30.5541   329
30.5641   292
30.5741   282
30.5841   292
30.5941   277
30.6041   322
30.6141   316
30.6241   318
30.6341   311
30.6441   300
30.6541   319
30.6641   263
30.6741   309
30.6841   286
30.6941   300
30.7041   290
30.7141   317
30.7241   332
30.7341   313
30.7441   315
30.7541   279
30.7641   305
30.7741   297
30.7841   282
30.7941   319
30.8041   336
30.8141   294
30.8241   255
30.8341   284
30.8441   277
30.8541   297
30.8641   308
30.8741   284
30.8841   329
30.8941   298
30.9041   299
30.9141   290
30.9241   306
30.9341   290
30.9441   302
30.9541   271
30.9641   287
30.9741   284
30.9841   283
30.9941   298
31.0041   306
31.0141   291
31.0241   283
31.0341   292
31.0441   299
31.0541   306
31.0641   263
31.0741   292
31.0841   290
31.0941   277
31.1041   278
31.1141   304
31.1241   298
31.1341   266
31.1441   276
31.1541   304
31.1641   286
31.1741   301
31.1841   283
31.1941   282
31.2041   259
31.2141   289
31.2241   286
31.2341   288
31.2441   293
31.2541   286
31.2641   317
31.2741   295
31.2841   277
31.2941   305
31.3041   269
31.3141   274
31.3241   266
31.3341   289
31.3441   292
31.3541   271
31.3641   262
31.3741   291
31.3841   252
31.3941   263
31.4041   245
31.4141   259
31.4241   276
31.4341   267
31.4441   245
31.4541   254
31.4641   235
31.4741   287
31.4841   260
31.4941   279
31.5041   256
31.5141   296
31.5241   263
31.5341   272
31.5441   279
31.5541   293
31.5641   280
31.5741   295
31.5841   275
31.5941   255
31.6041   262
31.6141   263
31.6241   273
31.6341   264
31.6441   290
31.6541   302
31.6641   253
31.6741   271
31.6841   285
31.6941   244
31.7041   287
31.7141   256
31.7241   262
31.7341   270
31.7441   265
31.7541   263
31.7641   253
31.7741   241
31.7841   315
31.7941   286
31.8041   271
31.8141   275
31.8241   267
31.8341   243
31.8441   263
31.8541   276
31.8641   273
31.8741   269
31.8841   268
31.8941   283
31.9041   260
31.9141   247
31.9241   262
31.9341   281
31.9441   256
31.9541   247
31.9641   273
31.9741   255
31.9841   274
31.9941   271
32.0041   256
32.0141   255
32.0241   267
32.0341   283
32.0441   255
32.0541   259
32.0641   263
32.0741   288
32.0841   282
32.0941   243
32.1041   248
32.1141   248
32.1241   251
32.1341   275
32.1441   268
32.1541   257
32.1641   255
32.1741   275
32.1841   252
32.1941   266
32.2041   243
32.2141   270
32.2241   242
32.2341   273
32.2441   247
32.2541   289
32.2641   268
32.2741   262
32.2841   232
32.2941   273
32.3041   260
32.3141   232
32.3241   263
32.3341   257
32.3441   242
32.3541   271
32.3641   252
32.3741   231
32.3841   260
32.3941   257
32.4041   245
32.4141   257
32.4241   247
32.4341   245
32.4441   246
32.4541   250
32.4641   219
32.4741   251
32.4841   232
32.4941   223
32.5041   233
32.5141   216
32.5241   230
32.5341   235
32.5441   228
32.5541   220
32.5641   241
32.5741   229
32.5841   217
32.5941   232
32.6041   222
32.6141   194
32.6241   216
32.6341   203
32.6441   237
32.6541   232
32.6641   243
32.6741   230
32.6841   227
32.6941   217
32.7041   194
32.7141   227
32.7241   191
32.7341   224
32.7441   236
32.7541   218
32.7641   223
32.7741   231
32.7841   187
32.7941   226
32.8041   228
32.8141   185
32.8241   213
32.8341   222
32.8441   225
32.8541   207
32.8641   199
32.8741   190
32.8841   205
32.8941   225
32.9041   228
32.9141   207
32.9241   196
32.9341   230
32.9441   204
32.9541   214
32.9641   194
32.9741   215
32.9841   214
32.9941   195
33.0041   210
33.0141   223
33.0241   228
33.0341   194
33.0441   194
33.0541   221
33.0641   225
33.0741   215
33.0841   193
33.0941   210
33.1041   204
33.1141   202
33.1241   192
33.1341   195
33.1441   207
33.1541   236
33.1641   198
33.1741   194
33.1841   215
33.1941   199
33.2041   202
33.2141   207
33.2241   200
33.2341   193
33.2441   186
33.2541   216
33.2641   183
33.2741   190
33.2841   200
33.2941   208
33.3041   184
33.3141   185
33.3241   195
33.3341   188
33.3441   181
33.3541   180
33.3641   185
33.3741   211
33.3841   184
33.3941   190
33.4041   186
33.4141   186
33.4241   179
33.4341   172
33.4441   180
33.4541   212
33.4641   178
33.4741   200
33.4841   189
33.4941   203
33.5041   209
33.5141   172
33.5241   197
33.5341   204
33.5441   178
33.5541   190
33.5641   189
33.5741   171
33.5841   194
33.5941   219
33.6041   184
33.6141   172
33.6241   171
33.6341   186
33.6441   177
33.6541   174
33.6641   199
33.6741   215
33.6841   180
33.6941   177
33.7041   181
33.7141   185
33.7241   200
33.7341   181
33.7441   182
33.7541   197
33.7641   177
33.7741   150
33.7841   207
33.7941   167
33.8041   168
33.8141   194
33.8241   178
33.8341   183
33.8441   181
33.8541   146
33.8641   179
33.8741   166
33.8841   168
33.8941   201
33.9041   180
33.9141   189
33.9241   164
33.9341   182
33.9441   177
33.9541   171
33.9641   177
33.9741   174
33.9841   173
33.9941   201
34.0041   181
34.0141   165
34.0241   180
34.0341   159
34.0441   157
34.0541   180
34.0641   163
34.0741   183
34.0841   172
34.0941   189
34.1041   152
34.1141   165
34.1241   170
34.1341   163
34.1441   170
34.1541   168
34.1641   178
34.1741   191
34.1841   182
34.1941   163
34.2041   152
34.2141   177
34.2241   155
34.2341   189
34.2441   171
34.2541   153
34.2641   171
34.2741   157
34.2841   164
34.2941   181
34.3041   156
34.3141   148
34.3241   170
34.3341   159
34.3441   174
34.3541   192
34.3641   190
34.3741   172
34.3841   158
34.3941   179
34.4041   148
34.4141   165
34.4241   169
34.4341   164
34.4441   177
34.4541   139
34.4641   157
34.4741   176
34.4841   156
34.4941   146
34.5041   151
34.5141   156
34.5241   146
34.5341   155
34.5441   162
34.5541   137
34.5641   147
34.5741   152
34.5841   151
34.5941   155
34.6041   137
34.6141   162
34.6241   143
34.6341   132
34.6441   166
34.6541   159
34.6641   144
34.6741   154
34.6841   158
34.6941   139
34.7041   165
34.7141   132
34.7241   131
34.7341   135
34.7441   147
34.7541   154
34.7641   135
34.7741   158
34.7841   148
34.7941   141
34.8041   149
34.8141   169
34.8241   138
34.8341   141
34.8441   131
34.8541   129
34.8641   152
34.8741   141
34.8841   136
34.8941   144
34.9041   134
34.9141   150
34.9241   155
34.9341   135
34.9441   151
34.9541   126
34.9641   162
34.9741   132
34.9841   134
34.9941   137
35.0041   134
35.0141   140
35.0241   149
35.0341   139
35.0441   137
35.0541   141
35.0641   149
35.0741   113
35.0841   149
35.0941   148
35.1041   149
35.1141   143
35.1241   136
35.1341   130
35.1441   141
35.1541   137
35.1641   136
35.1741   156
35.1841   147
35.1941   153
35.2041   134
35.2141   128
35.2241   135
35.2341   139
35.2441   137
35.2541   145
35.2641   147
35.2741   125
35.2841   136
35.2941   147
35.3041   142
35.3141   134
35.3241   133
35.3341   145
35.3441   128
35.3541   131
35.3641   132
35.3741   117
35.3841   127
35.3941   130
35.4041   114
35.4141   129
35.4241   120
35.4341   146
35.4441   117
35.4541   119
35.4641   114
35.4741   128
35.4841   145
35.4941   120
35.5041   130
35.5141   124
35.5241   139
35.5341   130
35.5441   131
35.5541   114
35.5641   139
35.5741   149
35.5841   135
35.5941   117
35.6041   130
35.6141   112
35.6241   125
35.6341   125
35.6441   138
35.6541   136
35.6641   144
35.6741   131
35.6841   144
35.6941   137
35.7041   114
35.7141   128
35.7241   115
35.7341   115
35.7441   109
35.7541   132
35.7641   126
35.7741   126
35.7841   114
35.7941   115
35.8041   120
35.8141   133
35.8241   128
35.8341   124
35.8441   116
35.8541   107
35.8641   126
35.8741    92
35.8841   113
35.8941   126
35.9041   123
35.9141   115
35.9241   121
35.9341   114
35.9441   123
35.9541    97
35.9641   128
35.9741   123
35.9841   115
35.9941   106
36.0041   114
36.0141   118
36.0241   103
36.0341   127
36.0441   119
36.0541   103
36.0641   101
36.0741   118
36.0841   112
36.0941   128
36.1041   105
36.1141   124
36.1241   104
36.1341   129
36.1441   132
36.1541   115
36.1641   118
36.1741    96
36.1841   118
36.1941   132
36.2041   126
36.2141   114
36.2241   118
36.2341   113
36.2441   124
36.2541   131
36.2641   127
36.2741   109
36.2841   117
36.2941   113
36.3041   111
36.3141   100
36.3241    90
36.3341   106
36.3441   119
36.3541    90
36.3641   111
36.3741   111
36.3841   117
36.3941   105
36.4041   104
36.4141    98
36.4241   104
36.4341   111
36.4441   116
36.4541   101
36.4641   109
36.4741   117
36.4841   103
36.4941    99
36.5041   103
36.5141   111
36.5241    94
36.5341   107
36.5441   103
36.5541   113
36.5641    82
36.5741   110
36.5841   106
36.5941    91
36.6041   109
36.6141   108
36.6241    96
36.6341   105
36.6441   115
36.6541   115
36.6641   109
36.6741    99
36.6841    94
36.6941    99
36.7041    99
36.7141    92
36.7241    98
36.7341   114
36.7441    96
36.7541   101
36.7641   101
36.7741    99
36.7841    99
36.7941    85
36.8041   110
36.8141   108
36.8241    99
36.8341    97
36.8441    94
36.8541    90
36.8641   102
36.8741    94
36.8841    79
36.8941    99
36.9041    98
36.9141    95
36.9241    88
36.9341   103
36.9441    95
36.9541    85
36.9641    96
36.9741    89
36.9841    88
36.9941    87
37.0041    98
37.0141    90
37.0241    91
37.0341    90
37.0441    74
37.0541    84
37.0641    84
37.0741    92
37.0841    88
37.0941    74
37.1041    99
37.1141    97
37.1241    81
37.1341    85
37.1441    89
37.1541   101
37.1641    83
37.1741   104
37.1841    89
37.1941    89
37.2041    84
37.2141    81
37.2241    84
37.2341   111
37.2441    73
37.2541    88
37.2641    96
37.2741    88
37.2841    81
37.2941    76
37.3041    85
37.3141   104
37.3241    92
37.3341    80
37.3441    88
37.3541    80
37.3641    88
37.3741    96
37.3841    93
37.3941    80
37.4041    70
37.4141    90
37.4241    83
37.4341    85
37.4441    76
37.4541    90
37.4641    87
37.4741    66
37.4841    75
37.4941    71
37.5041    64
37.5141    71
37.5241    86
37.5341    87
37.5441    87
37.5541    91
37.5641    70
37.5741    64
37.5841    72
37.5941    86
37.6041    89
37.6141    82
37.6241    82
37.6341    86
37.6441    94
37.6541    82
37.6641    86
37.6741    77
37.6841    85
37.6941    82
37.7041    79
37.7141    77
37.7241    95
37.7341    82
37.7441    66
37.7541    77
37.7641    56
37.7741    73
37.7841    90
37.7941    62
37.8041    66
37.8141    78
37.8241    73
37.8341    73
37.8441    61
37.8541    67
37.8641    65
37.8741    80
37.8841    78
37.8941    61
37.9041    59
37.9141    79
37.9241    55
37.9341    81
37.9441    82
37.9541    76
37.9641    77
37.9741    77
37.9841    66
37.9941    82
38.0041    63
38.0141    76
38.0241    67
38.0341    64
38.0441    70
38.0541    77
38.0641    67
38.0741    83
38.0841    84
38.0941    66
38.1041    64
38.1141    61
38.1241    59
38.1341    72
38.1441    70
38.1541    66
38.1641    61
38.1741    80
38.1841    79
38.1941    69
38.2041    64
38.2141    69
38.2241    53
38.2341    69
38.2441    56
38.2541    75
38.2641    65
38.2741    63
38.2841    74
38.2941    55
38.3041    65
38.3141    63
38.3241    62
38.3341    66
38.3441    60
38.3541    63
38.3641    55
38.3741    68
38.3841    68
38.3941    65
38.4041    66
38.4141    76
38.4241    69
38.4341    55
38.4441    61
38.4541    61
38.4641    55
38.4741    69
38.4841    66
38.4941    62
38.5041    69
38.5141    65
38.5241    64
38.5341    60
38.5441    53
38.5541    57
38.5641    56
38.5741    54
38.5841    60
38.5941    56
38.6041    47
38.6141    68
38.6241    65
38.6341    63
38.6441    70
38.6541    44
38.6641    58
38.6741    66
38.6841    48
38.6941    65
38.7041    63
38.7141    66
38.7241    56
38.7341    66
38.7441    55
38.7541    53
38.7641    62
38.7741    60
38.7841    54
38.7941    59
38.8041    49
38.8141    54
38.8241    55
38.8341    53
38.8441    53
38.8541    54
38.8641    59
38.8741    59
38.8841    64
38.8941    63
38.9041    51
38.9141    67
38.9241    66
38.9341    58
38.9441    53
38.9541    71
38.9641    53
38.9741    42
38.9841    43
38.9941    53
39.0041    47
39.0141    54
39.0241    53
39.0341    62
39.0441    51
39.0541    49
39.0641    61
39.0741    40
39.0841    55
39.0941    58
39.1041    67
39.1141    47
39.1241    53
39.1341    52
39.1441    43
39.1541    40
39.1641    44
39.1741    49
39.1841    50
39.1941    42
39.2041    45
39.2141    44
39.2241    34
39.2341    43
39.2441    45
39.2541    49
39.2641    43
39.2741    51
39.2841    50
39.2941    54
39.3041    41
39.3141    39
39.3241    46
39.3341    42
39.3441    51
39.3541    48
39.3641    58
39.3741    46
39.3841    50
39.3941    46
39.4041    35
39.4141    56
39.4241    56
39.4341    40
39.4441    39
39.4541    53
39.4641    44
39.4741    37
39.4841    25
39.4941    41
39.5041    49
39.5141    41
39.5241    46
39.5341    41
39.5441    46
39.5541    54
39.5641    50
39.5741    51
39.5841    42
39.5941    39
39.6041    42
39.6141    42
39.6241    41
39.6341    42
39.6441    40
39.6541    46
39.6641    49
39.6741    46
39.6841    40
39.6941    44
39.7041    42
39.7141    37
39.7241    41
39.7341    42
39.7441    35
39.7541    42
39.7641    31
39.7741    44
39.7841    35
39.7941    45
39.8041    46
39.8141    39
39.8241    37
39.8341    44
39.8441    39
39.8541    41
39.8641    35
39.8741    42
39.8841    33
39.8941    44
39.9041    40
39.9141    40
39.9241    31
39.9341    43
39.9441    44
39.9541    40
39.9641    32
39.9741    36
39.9841    32
